<?xml version="1.0" encoding="UTF-8"?>
<Profile>
<triggerMode>AUTO</triggerMode>
<triggerKind>EdgeFalling</triggerKind>
<triggerLevel>24.0V</triggerLevel>
<triggerSensitivity>3.20V</triggerSensitivity>
<attenuation>x1</attenuation>
<voltageDiv>10V</voltageDiv>
<timeDiv>200us</timeDiv>
<sampleDiv>200us</sampleDiv>
<firmware>V3.62</firmware>
<fileNumber>S001</fileNumber>
<triggerIndex>1470</triggerIndex>
<sampleCount>4098</sampleCount>
<timeRange>32.78e-3</timeRange>
</Profile>
0 -17.51 
1 -17.38 
2 -17.31 
3 -17.26 
4 -17.20 
5 -17.13 
6 -17.11 
7 -17.54 
8 18.51 
9 17.81 
10 17.51 
11 17.24 
12 17.06 
13 16.92 
14 16.79 
15 16.68 
16 16.59 
17 16.54 
18 16.50 
19 16.43 
20 16.38 
21 -21.58 
22 -18.73 
23 -18.39 
24 -18.12 
25 -17.90 
26 -17.69 
27 -17.56 
28 -17.47 
29 -17.38 
30 -17.29 
31 -17.20 
32 -17.20 
33 -17.13 
34 -17.08 
35 18.78 
36 17.92 
37 17.60 
38 17.35 
39 17.13 
40 16.95 
41 16.81 
42 16.72 
43 16.65 
44 16.54 
45 16.50 
46 16.45 
47 16.43 
48 16.68 
49 -19.21 
50 -18.51 
51 -18.19 
52 -17.94 
53 -17.78 
54 -17.60 
55 -17.47 
56 -17.38 
57 -17.29 
58 -17.24 
59 -17.17 
60 -17.13 
61 -17.13 
62 15.68 
63 18.15 
64 17.72 
65 17.42 
66 17.20 
67 17.04 
68 16.90 
69 16.74 
70 16.63 
71 16.61 
72 16.54 
73 16.47 
74 16.43 
75 16.41 
76 -19.43 
77 -18.62 
78 -18.30 
79 -18.01 
80 -17.81 
81 -17.63 
82 -17.54 
83 -17.42 
84 -17.31 
85 -17.22 
86 -17.20 
87 -17.13 
88 -17.08 
89 -17.47 
90 18.57 
91 17.85 
92 17.54 
93 17.29 
94 17.08 
95 16.92 
96 16.81 
97 16.70 
98 16.61 
99 16.54 
100 16.50 
101 16.47 
102 16.41 
103 -15.98 
104 -18.85 
105 -18.37 
106 -18.08 
107 -17.90 
108 -17.69 
109 -17.54 
110 -17.42 
111 -17.35 
112 -17.26 
113 -17.20 
114 -17.13 
115 -17.11 
116 -17.08 
117 19.03 
118 17.99 
119 17.63 
120 17.35 
121 17.15 
122 17.02 
123 16.88 
124 16.74 
125 16.65 
126 16.56 
127 16.52 
128 16.45 
129 16.43 
130 16.56 
131 -19.21 
132 -18.53 
133 -18.21 
134 -17.94 
135 -17.72 
136 -17.58 
137 -17.47 
138 -17.35 
139 -17.26 
140 -17.22 
141 -17.15 
142 -17.11 
143 -17.04 
144 3.231 
145 18.35 
146 17.76 
147 17.47 
148 17.24 
149 17.04 
150 16.90 
151 16.79 
152 16.70 
153 16.59 
154 16.52 
155 16.52 
156 16.45 
157 16.41 
158 -19.64 
159 -18.64 
160 -18.28 
161 -18.01 
162 -17.81 
163 -17.63 
164 -17.49 
165 -17.38 
166 -17.31 
167 -17.22 
168 -17.15 
169 -17.11 
170 -17.08 
171 -17.65 
172 18.66 
173 17.92 
174 17.54 
175 17.31 
176 17.13 
177 16.97 
178 16.81 
179 16.72 
180 16.63 
181 16.59 
182 16.50 
183 16.45 
184 16.45 
185 -1.785 
186 -19.03 
187 -18.39 
188 -18.10 
189 -17.85 
190 -17.69 
191 -17.54 
192 -17.40 
193 -17.29 
194 -17.22 
195 -17.17 
196 -17.11 
197 -17.06 
198 -17.02 
199 19.46 
200 18.03 
201 17.69 
202 17.42 
203 17.17 
204 17.02 
205 16.90 
206 16.77 
207 16.65 
208 16.59 
209 16.54 
210 16.47 
211 16.43 
212 16.43 
213 -19.25 
214 -18.51 
215 -18.19 
216 -17.94 
217 -17.74 
218 -17.56 
219 -17.85 
220 18.21 
221 17.56 
222 17.31 
223 17.13 
224 16.92 
225 16.83 
226 12.22 
227 -18.73 
228 -18.19 
229 -17.94 
230 -17.74 
231 -17.54 
232 -17.42 
233 8.587 
234 18.03 
235 17.56 
236 17.29 
237 17.08 
238 16.92 
239 16.81 
240 -20.38 
241 -18.42 
242 -18.10 
243 -17.85 
244 -17.65 
245 -17.51 
246 -17.40 
247 18.78 
248 17.78 
249 17.42 
250 17.20 
251 17.04 
252 16.88 
253 16.77 
254 -19.03 
255 -18.30 
256 -17.99 
257 -17.78 
258 -17.60 
259 -17.47 
260 -17.87 
261 18.33 
262 17.63 
263 17.35 
264 17.17 
265 16.99 
266 16.83 
267 17.04 
268 -18.80 
269 -18.17 
270 -17.94 
271 -17.72 
272 -17.54 
273 -17.44 
274 1.198 
275 18.12 
276 17.56 
277 17.31 
278 17.08 
279 16.92 
280 16.81 
281 -20.77 
282 -18.42 
283 -18.10 
284 -17.87 
285 -17.65 
286 -17.54 
287 -17.40 
288 19.23 
289 17.81 
290 17.47 
291 17.22 
292 17.04 
293 16.90 
294 16.77 
295 -19.05 
296 -18.30 
297 -17.99 
298 -17.78 
299 -17.60 
300 -17.47 
301 -17.83 
302 18.39 
303 17.67 
304 17.38 
305 17.17 
306 17.02 
307 16.88 
308 16.99 
309 -18.82 
310 -18.19 
311 -17.92 
312 -17.72 
313 -17.54 
314 -17.40 
315 -8.858 
316 18.08 
317 17.56 
318 17.31 
319 17.11 
320 16.95 
321 16.81 
322 -17.65 
323 -18.44 
324 -18.10 
325 -17.85 
326 -17.65 
327 -17.47 
328 -17.38 
329 19.09 
330 17.83 
331 17.49 
332 17.24 
333 17.04 
334 16.90 
335 16.81 
336 -19.09 
337 -18.30 
338 -18.01 
339 -17.76 
340 -17.58 
341 -17.47 
342 -17.35 
343 18.44 
344 17.72 
345 17.40 
346 17.20 
347 16.99 
348 16.88 
349 17.02 
350 -18.87 
351 -18.19 
352 -17.92 
353 -17.72 
354 -17.54 
355 -17.40 
356 -17.63 
357 18.21 
358 17.58 
359 17.31 
360 17.13 
361 16.97 
362 16.81 
363 -13.40 
364 -18.51 
365 -18.10 
366 -17.87 
367 -17.67 
368 -17.49 
369 -17.35 
370 19.00 
371 17.81 
372 17.51 
373 17.26 
374 17.06 
375 16.90 
376 16.79 
377 -19.16 
378 -18.35 
379 -18.03 
380 -17.78 
381 -17.58 
382 -17.47 
383 -17.35 
384 18.46 
385 17.72 
386 17.42 
387 17.17 
388 17.02 
389 16.88 
390 16.77 
391 -18.89 
392 -18.21 
393 -17.94 
394 -17.72 
395 -17.56 
396 -17.42 
397 -17.74 
398 18.26 
399 17.60 
400 17.33 
401 17.13 
402 16.99 
403 16.81 
404 -6.169 
405 -18.62 
406 -18.12 
407 -17.85 
408 -17.67 
409 -17.51 
410 -17.38 
411 16.63 
412 17.87 
413 17.49 
414 17.24 
415 17.08 
416 16.90 
417 16.79 
418 -19.34 
419 -18.33 
420 -18.03 
421 -17.78 
422 -17.60 
423 -17.44 
424 -17.35 
425 18.53 
426 17.74 
427 17.44 
428 17.20 
429 17.02 
430 16.88 
431 16.77 
432 -18.89 
433 -18.24 
434 -17.94 
435 -17.72 
436 -17.51 
437 -17.42 
438 -17.72 
439 18.30 
440 17.63 
441 17.31 
442 17.15 
443 16.99 
444 16.86 
445 4.813 
446 -18.60 
447 -18.12 
448 -17.85 
449 -17.67 
450 -17.49 
451 -17.35 
452 11.75 
453 17.96 
454 17.51 
455 17.29 
456 17.11 
457 16.95 
458 16.79 
459 -19.82 
460 -18.33 
461 -17.99 
462 -17.81 
463 -17.58 
464 -17.42 
465 -17.31 
466 18.66 
467 17.76 
468 17.44 
469 17.22 
470 17.02 
471 16.88 
472 16.77 
473 -18.91 
474 -18.21 
475 -17.94 
476 -17.72 
477 -17.51 
478 -17.40 
479 -17.76 
480 18.33 
481 17.65 
482 17.35 
483 17.13 
484 16.97 
485 16.86 
486 16.99 
487 -18.76 
488 -18.15 
489 -17.85 
490 -17.65 
491 -17.49 
492 -17.35 
493 5.084 
494 18.08 
495 17.54 
496 17.26 
497 17.08 
498 16.97 
499 16.81 
500 -21.13 
501 -18.35 
502 -18.03 
503 -17.78 
504 -17.60 
505 -17.47 
506 -17.31 
507 18.98 
508 17.74 
509 17.47 
510 17.22 
511 17.04 
512 16.88 
513 16.77 
514 -18.96 
515 -18.24 
516 -17.94 
517 -17.74 
518 -17.56 
519 -17.40 
520 -17.94 
521 18.35 
522 17.65 
523 17.40 
524 17.15 
525 16.97 
526 16.83 
527 17.04 
528 -18.76 
529 -18.17 
530 -17.85 
531 -17.65 
532 -17.49 
533 -17.38 
534 -3.751 
535 18.01 
536 17.58 
537 17.29 
538 17.08 
539 16.92 
540 16.83 
541 -19.00 
542 -18.39 
543 -18.03 
544 -17.78 
545 -17.60 
546 -17.47 
547 -17.31 
548 19.23 
549 17.81 
550 17.44 
551 17.24 
552 17.06 
553 16.90 
554 16.77 
555 -19.00 
556 -18.24 
557 -17.94 
558 -17.76 
559 -17.54 
560 -17.40 
561 -17.29 
562 18.37 
563 17.65 
564 17.40 
565 17.17 
566 16.99 
567 16.83 
568 17.04 
569 -18.73 
570 -18.15 
571 -17.87 
572 -17.65 
573 -17.47 
574 -17.35 
575 -15.37 
576 18.17 
577 17.58 
578 17.31 
579 17.08 
580 16.95 
581 16.81 
582 -15.46 
583 -18.42 
584 -18.03 
585 -17.78 
586 -17.56 
587 -17.42 
588 -17.33 
589 19.05 
590 17.83 
591 17.47 
592 17.24 
593 17.04 
594 16.92 
595 16.77 
596 -19.05 
597 -18.26 
598 -17.94 
599 -17.72 
600 -17.56 
601 -17.40 
602 -17.26 
603 18.46 
604 17.69 
605 17.40 
606 17.15 
607 17.02 
608 16.88 
609 16.88 
610 -18.78 
611 -18.12 
612 -17.85 
613 -17.67 
614 -17.49 
615 -17.33 
616 -17.69 
617 18.21 
618 17.60 
619 17.33 
620 17.11 
621 16.95 
622 16.81 
623 -9.739 
624 -18.51 
625 -18.05 
626 -17.78 
627 -17.58 
628 -17.42 
629 -17.33 
630 18.21 
631 17.85 
632 17.51 
633 17.22 
634 17.04 
635 16.90 
636 16.79 
637 -19.21 
638 -18.28 
639 -17.96 
640 -17.72 
641 -17.54 
642 -17.40 
643 -17.29 
644 18.51 
645 17.72 
646 17.40 
647 17.17 
648 17.02 
649 16.88 
650 16.72 
651 -18.85 
652 -18.15 
653 -17.87 
654 -17.67 
655 -17.49 
656 -17.33 
657 -17.63 
658 18.26 
659 17.58 
660 17.33 
661 17.13 
662 16.95 
663 16.81 
664 -1.243 
665 -18.62 
666 -18.05 
667 -17.81 
668 -17.58 
669 -17.42 
670 -17.33 
671 14.51 
672 17.90 
673 17.54 
674 17.26 
675 17.06 
676 16.90 
677 16.79 
678 -19.43 
679 -18.30 
680 -17.94 
681 -17.72 
682 -17.51 
683 -17.40 
684 -17.26 
685 -17.17 
686 -17.11 
687 -17.02 
688 -16.99 
689 -16.92 
690 -16.90 
691 -16.88 
692 18.71 
693 17.92 
694 17.60 
695 17.35 
696 17.11 
697 16.95 
698 16.83 
699 16.72 
700 16.61 
701 16.54 
702 16.50 
703 16.47 
704 16.41 
705 11.52 
706 -18.87 
707 -18.28 
708 -18.01 
709 -17.76 
710 -17.58 
711 -17.44 
712 -17.31 
713 -17.22 
714 -17.13 
715 -17.06 
716 -17.02 
717 -16.99 
718 -16.97 
719 19.34 
720 18.08 
721 17.67 
722 17.40 
723 17.20 
724 17.02 
725 16.88 
726 16.74 
727 16.68 
728 16.59 
729 16.52 
730 16.47 
731 16.43 
732 16.41 
733 -19.27 
734 -18.55 
735 -18.19 
736 -17.92 
737 -17.74 
738 -17.60 
739 -17.47 
740 -17.35 
741 -17.26 
742 -17.24 
743 -17.15 
744 -17.11 
745 -17.06 
746 -17.51 
747 18.51 
748 17.83 
749 17.49 
750 17.24 
751 17.06 
752 16.92 
753 16.81 
754 16.70 
755 16.59 
756 16.54 
757 16.50 
758 16.43 
759 16.38 
760 -21.33 
761 -18.76 
762 -18.39 
763 -18.15 
764 -17.92 
765 -17.72 
766 -17.58 
767 -17.49 
768 -17.38 
769 -17.31 
770 -17.24 
771 -17.20 
772 -17.17 
773 -17.13 
774 18.80 
775 17.94 
776 17.58 
777 17.35 
778 17.15 
779 16.97 
780 16.83 
781 16.72 
782 16.63 
783 16.56 
784 16.50 
785 16.45 
786 16.43 
787 16.65 
788 -19.25 
789 -18.57 
790 -18.26 
791 -17.99 
792 -17.85 
793 -17.67 
794 -17.54 
795 -17.42 
796 -17.35 
797 -17.31 
798 -17.24 
799 -17.15 
800 -17.15 
801 13.78 
802 18.19 
803 17.74 
804 17.44 
805 17.20 
806 17.04 
807 16.90 
808 16.77 
809 16.68 
810 16.59 
811 16.54 
812 16.50 
813 16.43 
814 16.38 
815 -19.50 
816 -18.69 
817 -18.35 
818 -18.10 
819 -17.87 
820 -17.69 
821 -17.58 
822 18.35 
823 17.63 
824 17.35 
825 17.13 
826 16.95 
827 16.83 
828 16.99 
829 -19.00 
830 -18.39 
831 -18.08 
832 -17.85 
833 -17.69 
834 -17.56 
835 -17.44 
836 -17.33 
837 -17.26 
838 -17.24 
839 -17.17 
840 -17.13 
841 -17.08 
842 7.977 
843 18.30 
844 17.76 
845 17.49 
846 17.22 
847 17.04 
848 16.92 
849 16.79 
850 16.68 
851 16.59 
852 16.54 
853 16.50 
854 16.43 
855 16.41 
856 -19.59 
857 -18.69 
858 -18.35 
859 -18.10 
860 -17.87 
861 -17.69 
862 -17.56 
863 -17.44 
864 -17.35 
865 -17.26 
866 -17.22 
867 -17.20 
868 -17.15 
869 -17.65 
870 18.64 
871 17.87 
872 17.54 
873 17.31 
874 17.13 
875 16.95 
876 16.81 
877 16.72 
878 16.61 
879 16.54 
880 16.50 
881 16.45 
882 16.43 
883 -7.841 
884 -19.03 
885 -18.46 
886 -18.17 
887 -17.94 
888 -17.78 
889 -17.60 
890 17.02 
891 17.81 
892 17.44 
893 17.20 
894 17.02 
895 16.90 
896 16.74 
897 -19.48 
898 -18.51 
899 -18.17 
900 -17.94 
901 -17.76 
902 -17.60 
903 -17.47 
904 -17.38 
905 -17.31 
906 -17.22 
907 -17.17 
908 -17.13 
909 -17.11 
910 -17.40 
911 18.71 
912 17.94 
913 17.58 
914 17.31 
915 17.15 
916 16.97 
917 16.81 
918 16.70 
919 16.65 
920 16.59 
921 16.50 
922 16.45 
923 16.43 
924 1.695 
925 -18.94 
926 -18.51 
927 -18.17 
928 -17.94 
929 -17.72 
930 -17.60 
931 -17.47 
932 -17.35 
933 -17.29 
934 -17.26 
935 -17.17 
936 -17.13 
937 -17.08 
938 19.39 
939 18.05 
940 17.69 
941 17.44 
942 17.17 
943 17.02 
944 16.88 
945 16.77 
946 16.65 
947 16.59 
948 16.54 
949 16.50 
950 16.43 
951 16.41 
952 -19.34 
953 -18.57 
954 -18.24 
955 -18.01 
956 -17.81 
957 -17.63 
958 -17.94 
959 18.26 
960 17.58 
961 17.33 
962 17.13 
963 16.95 
964 16.81 
965 15.86 
966 -18.87 
967 -18.26 
968 -18.01 
969 -17.78 
970 -17.60 
971 -17.49 
972 6.643 
973 18.05 
974 17.56 
975 17.29 
976 17.08 
977 16.95 
978 16.81 
979 -20.88 
980 -18.48 
981 -18.15 
982 -17.92 
983 -17.72 
984 -17.58 
985 -17.44 
986 -17.33 
987 -17.26 
988 -17.22 
989 -17.15 
990 -17.13 
991 -17.06 
992 -17.04 
993 18.78 
994 17.96 
995 17.65 
996 17.38 
997 17.15 
998 16.97 
999 16.88 
1000 16.77 
1001 16.63 
1002 16.56 
1003 16.52 
1004 16.50 
1005 16.43 
1006 16.65 
1007 -19.16 
1008 -18.48 
1009 -18.19 
1010 -17.94 
1011 -17.74 
1012 -17.58 
1013 -17.47 
1014 -17.40 
1015 -17.29 
1016 -17.20 
1017 -17.17 
1018 -17.13 
1019 -17.08 
1020 16.77 
1021 18.15 
1022 17.69 
1023 17.44 
1024 17.22 
1025 17.06 
1026 16.88 
1027 16.77 
1028 16.70 
1029 16.61 
1030 16.47 
1031 16.47 
1032 16.45 
1033 16.41 
1034 -19.43 
1035 -18.64 
1036 -18.28 
1037 -18.01 
1038 -17.83 
1039 -17.65 
1040 -17.49 
1041 -17.38 
1042 -17.31 
1043 -17.24 
1044 -17.17 
1045 -17.11 
1046 -17.06 
1047 -17.47 
1048 18.57 
1049 17.87 
1050 17.56 
1051 17.26 
1052 17.08 
1053 16.95 
1054 16.81 
1055 16.70 
1056 16.63 
1057 16.56 
1058 16.52 
1059 16.45 
1060 16.41 
1061 -16.86 
1062 -18.80 
1063 -18.37 
1064 -18.10 
1065 -17.87 
1066 -17.67 
1067 -17.54 
1068 -17.42 
1069 -17.33 
1070 -17.24 
1071 -17.17 
1072 -17.15 
1073 -17.08 
1074 -17.02 
1075 19.00 
1076 17.96 
1077 17.65 
1078 17.38 
1079 17.17 
1080 16.99 
1081 16.88 
1082 16.77 
1083 16.68 
1084 16.59 
1085 16.52 
1086 16.47 
1087 16.45 
1088 16.63 
1089 -19.21 
1090 -18.48 
1091 -18.17 
1092 -17.92 
1093 -17.74 
1094 -17.58 
1095 -17.42 
1096 -17.33 
1097 -17.29 
1098 -17.20 
1099 -17.13 
1100 -17.08 
1101 -17.06 
1102 5.491 
1103 18.35 
1104 17.78 
1105 17.47 
1106 17.22 
1107 17.06 
1108 16.92 
1109 16.79 
1110 16.65 
1111 16.61 
1112 16.56 
1113 16.50 
1114 16.43 
1115 16.41 
1116 -19.55 
1117 -18.64 
1118 -18.30 
1119 -18.03 
1120 -17.78 
1121 -17.60 
1122 -17.51 
1123 -17.38 
1124 -17.29 
1125 -17.22 
1126 -17.17 
1127 -17.13 
1128 -17.06 
1129 -17.65 
1130 18.64 
1131 17.90 
1132 17.56 
1133 17.33 
1134 17.11 
1135 16.95 
1136 16.83 
1137 16.72 
1138 16.63 
1139 16.56 
1140 16.50 
1141 16.47 
1142 16.43 
1143 -5.062 
1144 -18.98 
1145 -18.39 
1146 -18.10 
1147 -17.87 
1148 -17.69 
1149 -17.54 
1150 -17.42 
1151 -17.33 
1152 -17.24 
1153 -17.17 
1154 -17.11 
1155 -17.08 
1156 -17.04 
1157 19.55 
1158 18.03 
1159 17.67 
1160 17.40 
1161 17.17 
1162 17.04 
1163 16.88 
1164 16.74 
1165 16.65 
1166 16.59 
1167 16.54 
1168 16.47 
1169 16.43 
1170 16.43 
1171 -19.23 
1172 -18.51 
1173 -18.19 
1174 -17.94 
1175 -17.72 
1176 -17.58 
1177 -17.85 
1178 18.24 
1179 17.58 
1180 17.31 
1181 17.11 
1182 16.92 
1183 16.81 
1184 6.485 
1185 -18.69 
1186 -18.19 
1187 -17.90 
1188 -17.72 
1189 -17.56 
1190 -17.44 
1191 10.98 
1192 17.99 
1193 17.51 
1194 17.29 
1195 17.08 
1196 16.95 
1197 16.79 
1198 -20.00 
1199 -18.37 
1200 -18.08 
1201 -17.85 
1202 -17.65 
1203 -17.49 
1204 -17.38 
1205 -17.29 
1206 -17.22 
1207 -17.13 
1208 -17.08 
1209 -17.04 
1210 -17.02 
1211 -16.99 
1212 18.78 
1213 17.96 
1214 17.58 
1215 17.33 
1216 17.15 
1217 16.99 
1218 16.83 
1219 16.72 
1220 16.65 
1221 16.59 
1222 16.50 
1223 16.45 
1224 16.45 
1225 16.70 
1226 -19.07 
1227 -18.39 
1228 -18.10 
1229 -17.85 
1230 -17.67 
1231 -17.51 
1232 4.067 
1233 18.05 
1234 17.49 
1235 17.24 
1236 17.08 
1237 16.92 
1238 16.79 
1239 -21.24 
1240 -18.42 
1241 -18.10 
1242 -17.85 
1243 -17.67 
1244 -17.51 
1245 -17.35 
1246 -17.29 
1247 -17.20 
1248 -17.13 
1249 -17.08 
1250 -17.02 
1251 -17.02 
1252 -16.99 
1253 18.80 
1254 17.96 
1255 17.65 
1256 17.33 
1257 17.15 
1258 17.02 
1259 16.88 
1260 16.72 
1261 16.65 
1262 16.56 
1263 16.52 
1264 16.43 
1265 16.43 
1266 16.68 
1267 -19.09 
1268 -18.42 
1269 -18.12 
1270 -17.87 
1271 -17.67 
1272 -17.54 
1273 -17.40 
1274 -17.29 
1275 -17.20 
1276 -17.15 
1277 -17.08 
1278 -17.06 
1279 -16.99 
1280 15.34 
1281 18.17 
1282 17.74 
1283 17.44 
1284 17.24 
1285 17.02 
1286 16.88 
1287 16.77 
1288 16.68 
1289 16.59 
1290 16.54 
1291 16.50 
1292 16.45 
1293 16.41 
1294 -19.39 
1295 -18.55 
1296 -18.19 
1297 -17.94 
1298 -17.74 
1299 -17.56 
1300 -17.42 
1301 18.33 
1302 17.60 
1303 17.35 
1304 17.15 
1305 16.97 
1306 16.81 
1307 17.02 
1308 -18.85 
1309 -18.21 
1310 -17.96 
1311 -17.72 
1312 -17.54 
1313 -17.38 
1314 -16.27 
1315 18.19 
1316 17.58 
1317 17.33 
1318 17.11 
1319 16.95 
1320 16.81 
1321 -15.18 
1322 -18.48 
1323 -18.10 
1324 -17.83 
1325 -17.63 
1326 -17.49 
1327 -17.38 
1328 19.05 
1329 17.83 
1330 17.49 
1331 17.26 
1332 17.06 
1333 16.92 
1334 16.79 
1335 -19.14 
1336 -18.30 
1337 -17.96 
1338 -17.76 
1339 -17.58 
1340 -17.44 
1341 -17.31 
1342 18.46 
1343 17.69 
1344 17.40 
1345 17.20 
1346 17.02 
1347 16.88 
1348 16.88 
1349 -18.85 
1350 -18.21 
1351 -17.92 
1352 -17.72 
1353 -17.54 
1354 -17.38 
1355 -17.72 
1356 18.24 
1357 17.58 
1358 17.33 
1359 17.13 
1360 16.95 
1361 16.81 
1362 -9.468 
1363 -18.55 
1364 -18.10 
1365 -17.85 
1366 -17.65 
1367 -17.47 
1368 -17.38 
1369 18.05 
1370 17.85 
1371 17.51 
1372 17.26 
1373 17.06 
1374 16.90 
1375 16.79 
1376 -19.25 
1377 -18.33 
1378 -18.01 
1379 -17.76 
1380 -17.56 
1381 -17.47 
1382 -17.33 
1383 18.51 
1384 17.74 
1385 17.40 
1386 17.17 
1387 17.02 
1388 16.88 
1389 16.74 
1390 -18.89 
1391 -18.21 
1392 -17.92 
1393 -17.72 
1394 -17.54 
1395 -17.40 
1396 -17.69 
1397 18.26 
1398 17.60 
1399 17.33 
1400 17.13 
1401 16.97 
1402 16.81 
1403 -0.700 
1404 -18.69 
1405 -18.10 
1406 -17.87 
1407 -17.67 
1408 -17.47 
1409 -17.35 
1410 14.19 
1411 17.92 
1412 17.51 
1413 17.26 
1414 17.06 
1415 16.90 
1416 16.81 
1417 -19.52 
1418 -18.35 
1419 -18.03 
1420 -17.76 
1421 -17.58 
1422 -17.44 
1423 -17.35 
1424 18.60 
1425 17.76 
1426 17.44 
1427 17.20 
1428 17.02 
1429 16.88 
1430 16.79 
1431 -18.91 
1432 -18.21 
1433 -17.92 
1434 -17.69 
1435 -17.54 
1436 -17.40 
1437 -17.69 
1438 18.30 
1439 17.63 
1440 17.35 
1441 17.13 
1442 16.99 
1443 16.83 
1444 12.88 
1445 -18.66 
1446 -18.10 
1447 -17.85 
1448 -17.65 
1449 -17.49 
1450 -17.33 
1451 8.361 
1452 18.01 
1453 17.54 
1454 17.29 
1455 17.08 
1456 16.92 
1457 16.79 
1458 -20.38 
1459 -18.30 
1460 -18.03 
1461 -17.76 
1462 -17.58 
1463 -17.40 
1464 -17.31 
1465 18.78 
1466 17.78 
1467 17.44 
1468 17.20 
1469 17.02 
1470 16.88 
1471 16.77 
1472 -18.91 
1473 -18.24 
1474 -17.92 
1475 -17.72 
1476 -17.51 
1477 -17.40 
1478 -17.85 
1479 18.33 
1480 17.65 
1481 17.35 
1482 17.13 
1483 16.99 
1484 16.83 
1485 17.02 
1486 -18.78 
1487 -18.12 
1488 -17.87 
1489 -17.67 
1490 -17.51 
1491 -17.38 
1492 0.949 
1493 18.12 
1494 17.51 
1495 17.26 
1496 17.08 
1497 16.92 
1498 16.77 
1499 -20.59 
1500 -18.35 
1501 -18.03 
1502 -17.85 
1503 -17.63 
1504 -17.47 
1505 -17.35 
1506 19.21 
1507 17.76 
1508 17.44 
1509 17.22 
1510 16.99 
1511 16.88 
1512 16.77 
1513 -19.00 
1514 -18.28 
1515 -17.99 
1516 -17.72 
1517 -17.56 
1518 -17.42 
1519 -17.78 
1520 18.37 
1521 17.65 
1522 17.38 
1523 17.11 
1524 16.97 
1525 16.83 
1526 16.99 
1527 -18.80 
1528 -18.17 
1529 -17.87 
1530 -17.65 
1531 -17.49 
1532 -17.38 
1533 -9.129 
1534 18.08 
1535 17.54 
1536 17.29 
1537 17.11 
1538 16.95 
1539 16.81 
1540 -17.47 
1541 -18.39 
1542 -18.03 
1543 -17.78 
1544 -17.60 
1545 -17.44 
1546 -17.31 
1547 19.09 
1548 17.78 
1549 17.47 
1550 17.24 
1551 17.06 
1552 16.88 
1553 16.77 
1554 -19.03 
1555 -18.24 
1556 -17.94 
1557 -17.72 
1558 -17.51 
1559 -17.33 
1560 -17.29 
1561 18.39 
1562 17.69 
1563 17.40 
1564 17.17 
1565 16.99 
1566 16.88 
1567 17.02 
1568 -18.73 
1569 -18.12 
1570 -17.83 
1571 -17.60 
1572 -17.44 
1573 -17.33 
1574 -17.56 
1575 18.21 
1576 17.60 
1577 17.31 
1578 17.11 
1579 16.95 
1580 16.83 
1581 -13.22 
1582 -18.44 
1583 -18.01 
1584 -17.74 
1585 -17.56 
1586 -17.42 
1587 -17.26 
1588 19.05 
1589 17.81 
1590 17.47 
1591 17.24 
1592 17.08 
1593 16.90 
1594 16.77 
1595 -19.07 
1596 -18.21 
1597 -17.90 
1598 -17.69 
1599 -17.49 
1600 -17.35 
1601 -17.24 
1602 18.46 
1603 17.72 
1604 17.42 
1605 17.20 
1606 16.99 
1607 16.88 
1608 16.79 
1609 -18.76 
1610 -18.10 
1611 -17.83 
1612 -17.63 
1613 -17.44 
1614 -17.33 
1615 -17.65 
1616 18.26 
1617 17.60 
1618 17.35 
1619 17.08 
1620 16.97 
1621 16.83 
1622 -6.711 
1623 -18.53 
1624 -18.03 
1625 -17.76 
1626 -17.54 
1627 -17.42 
1628 -17.31 
1629 17.04 
1630 17.87 
1631 17.49 
1632 17.24 
1633 17.06 
1634 16.92 
1635 16.79 
1636 -19.25 
1637 -18.24 
1638 -17.94 
1639 -17.67 
1640 -17.54 
1641 -17.35 
1642 -17.26 
1643 18.53 
1644 17.69 
1645 17.40 
1646 17.17 
1647 17.02 
1648 16.88 
1649 16.74 
1650 -18.80 
1651 -18.12 
1652 -17.85 
1653 -17.65 
1654 -17.47 
1655 -17.33 
1656 -17.60 
1657 18.26 
1658 17.60 
1659 17.35 
1660 17.15 
1661 16.97 
1662 16.81 
1663 3.051 
1664 -18.48 
1665 -18.05 
1666 -17.78 
1667 -17.58 
1668 -17.40 
1669 -17.33 
1670 -17.22 
1671 -17.13 
1672 -17.06 
1673 -17.02 
1674 -16.99 
1675 -16.92 
1676 -16.88 
1677 19.41 
1678 18.01 
1679 17.69 
1680 17.40 
1681 17.20 
1682 16.99 
1683 16.88 
1684 16.77 
1685 16.65 
1686 16.54 
1687 16.52 
1688 16.47 
1689 16.43 
1690 16.41 
1691 -19.23 
1692 -18.46 
1693 -18.12 
1694 -17.90 
1695 -17.69 
1696 -17.54 
1697 -17.85 
1698 18.21 
1699 17.56 
1700 17.31 
1701 17.11 
1702 16.92 
1703 16.79 
1704 16.20 
1705 -18.85 
1706 -18.21 
1707 -17.94 
1708 -17.74 
1709 -17.58 
1710 -17.47 
1711 6.417 
1712 18.03 
1713 17.56 
1714 17.29 
1715 17.06 
1716 16.92 
1717 16.81 
1718 -20.88 
1719 -18.48 
1720 -18.17 
1721 -17.90 
1722 -17.72 
1723 -17.58 
1724 -17.44 
1725 18.87 
1726 17.76 
1727 17.44 
1728 17.20 
1729 16.97 
1730 16.90 
1731 16.77 
1732 -19.09 
1733 -18.39 
1734 -18.12 
1735 -17.87 
1736 -17.74 
1737 -17.58 
1738 -18.05 
1739 18.37 
1740 17.65 
1741 17.33 
1742 17.17 
1743 16.97 
1744 16.83 
1745 16.99 
1746 -18.94 
1747 -18.30 
1748 -18.05 
1749 -17.85 
1750 -17.72 
1751 -17.54 
1752 -1.808 
1753 17.96 
1754 17.56 
1755 17.31 
1756 17.08 
1757 16.92 
1758 16.79 
1759 -20.34 
1760 -18.55 
1761 -18.26 
1762 -17.99 
1763 -17.78 
1764 -17.63 
1765 -17.54 
1766 19.25 
1767 17.78 
1768 17.47 
1769 17.22 
1770 17.02 
1771 16.90 
1772 16.77 
1773 -19.21 
1774 -18.46 
1775 -18.15 
1776 -17.90 
1777 -17.72 
1778 -17.60 
1779 -17.54 
1780 18.42 
1781 17.69 
1782 17.33 
1783 17.15 
1784 16.97 
1785 16.88 
1786 16.99 
1787 -18.98 
1788 -18.30 
1789 -18.03 
1790 -17.87 
1791 -17.69 
1792 -17.54 
1793 -12.79 
1794 18.12 
1795 17.56 
1796 17.31 
1797 17.13 
1798 16.95 
1799 16.81 
1800 -16.88 
1801 -18.57 
1802 -18.21 
1803 -17.99 
1804 -17.78 
1805 -17.60 
1806 -17.49 
1807 -17.38 
1808 -17.33 
1809 -17.24 
1810 -17.17 
1811 -17.17 
1812 -17.11 
1813 -17.06 
1814 18.98 
1815 18.01 
1816 17.65 
1817 17.40 
1818 17.17 
1819 16.99 
1820 16.86 
1821 16.74 
1822 16.65 
1823 16.59 
1824 16.52 
1825 16.47 
1826 16.45 
1827 16.61 
1828 -19.25 
1829 -18.53 
1830 -18.21 
1831 -17.99 
1832 -17.78 
1833 -17.60 
1834 -17.47 
1835 -17.38 
1836 -17.33 
1837 -17.24 
1838 -17.17 
1839 -17.11 
1840 -17.11 
1841 5.265 
1842 18.30 
1843 17.76 
1844 17.47 
1845 17.22 
1846 17.06 
1847 16.92 
1848 16.79 
1849 16.68 
1850 16.59 
1851 16.56 
1852 16.47 
1853 16.45 
1854 16.38 
1855 -19.61 
1856 -18.66 
1857 -18.33 
1858 -18.08 
1859 -17.85 
1860 -17.67 
1861 -17.54 
1862 -17.42 
1863 -17.33 
1864 -17.24 
1865 -17.20 
1866 -17.15 
1867 -17.13 
1868 -17.69 
1869 18.64 
1870 17.87 
1871 17.58 
1872 17.33 
1873 17.11 
1874 16.95 
1875 16.83 
1876 16.70 
1877 16.63 
1878 16.54 
1879 16.50 
1880 16.50 
1881 16.45 
1882 -4.429 
1883 -19.05 
1884 -18.42 
1885 -18.12 
1886 -17.94 
1887 -17.76 
1888 -17.60 
1889 -17.44 
1890 -17.38 
1891 -17.29 
1892 -17.20 
1893 -17.15 
1894 -17.17 
1895 -17.11 
1896 19.55 
1897 18.05 
1898 17.69 
1899 17.40 
1900 17.17 
1901 17.02 
1902 16.88 
1903 16.74 
1904 16.65 
1905 16.61 
1906 16.54 
1907 16.45 
1908 16.45 
1909 16.43 
1910 -19.30 
1911 -18.60 
1912 -18.26 
1913 -17.99 
1914 -17.78 
1915 -17.63 
1916 -17.51 
1917 -17.40 
1918 -17.31 
1919 -17.24 
1920 -17.20 
1921 -17.13 
1922 -17.11 
1923 -15.21 
1924 18.44 
1925 17.78 
1926 17.47 
1927 17.26 
1928 17.04 
1929 16.90 
1930 16.79 
1931 16.70 
1932 16.59 
1933 16.52 
1934 16.50 
1935 16.45 
1936 16.41 
1937 -20.47 
1938 -18.71 
1939 -18.37 
1940 -18.08 
1941 -17.87 
1942 -17.69 
1943 -17.54 
1944 -17.44 
1945 -17.33 
1946 -17.29 
1947 -17.20 
1948 -17.13 
1949 -17.13 
1950 -17.13 
1951 18.73 
1952 17.96 
1953 17.58 
1954 17.33 
1955 17.15 
1956 16.97 
1957 16.79 
1958 16.72 
1959 16.63 
1960 16.59 
1961 16.50 
1962 16.45 
1963 16.45 
1964 16.68 
1965 -19.16 
1966 -18.48 
1967 -18.15 
1968 -17.92 
1969 -17.74 
1970 -17.58 
1971 -17.47 
1972 -17.35 
1973 -17.29 
1974 -17.24 
1975 -17.17 
1976 -17.11 
1977 -17.08 
1978 18.48 
1979 18.10 
1980 17.72 
1981 17.42 
1982 17.17 
1983 17.02 
1984 16.88 
1985 16.77 
1986 16.65 
1987 16.59 
1988 16.54 
1989 16.50 
1990 16.43 
1991 16.38 
1992 -19.41 
1993 -18.62 
1994 -18.26 
1995 -18.03 
1996 -17.81 
1997 -17.63 
1998 -17.49 
1999 -17.42 
2000 -17.33 
2001 -17.22 
2002 -17.17 
2003 -17.15 
2004 -17.11 
2005 -17.47 
2006 18.53 
2007 17.83 
2008 17.54 
2009 17.26 
2010 17.08 
2011 16.92 
2012 16.79 
2013 16.70 
2014 16.63 
2015 16.54 
2016 16.50 
2017 16.45 
2018 16.43 
2019 -18.80 
2020 -18.80 
2021 -18.37 
2022 -18.08 
2023 -17.87 
2024 -17.67 
2025 -17.56 
2026 -17.44 
2027 -17.33 
2028 -17.29 
2029 -17.22 
2030 -17.15 
2031 -17.11 
2032 -17.06 
2033 18.89 
2034 17.99 
2035 17.65 
2036 17.35 
2037 17.13 
2038 16.99 
2039 16.88 
2040 16.74 
2041 16.63 
2042 16.59 
2043 16.50 
2044 16.47 
2045 16.43 
2046 16.65 
2047 -19.16 
2048 -18.48 
2049 -18.19 
2050 -17.94 
2051 -17.72 
2052 -17.56 
2053 -17.44 
2054 -17.35 
2055 -17.26 
2056 -17.17 
2057 -17.15 
2058 -17.11 
2059 -17.06 
2060 9.061 
2061 18.28 
2062 17.76 
2063 17.47 
2064 17.24 
2065 17.04 
2066 16.90 
2067 16.77 
2068 16.70 
2069 16.63 
2070 16.52 
2071 16.50 
2072 16.45 
2073 16.43 
2074 -19.52 
2075 -18.62 
2076 -18.26 
2077 -17.99 
2078 -17.81 
2079 -17.60 
2080 -17.47 
2081 18.42 
2082 17.67 
2083 17.38 
2084 17.17 
2085 16.99 
2086 16.81 
2087 16.81 
2088 -18.94 
2089 -18.26 
2090 -17.99 
2091 -17.81 
2092 -17.60 
2093 -17.44 
2094 -17.78 
2095 18.26 
2096 17.63 
2097 17.35 
2098 17.17 
2099 16.97 
2100 16.83 
2101 -8.157 
2102 -18.66 
2103 -18.17 
2104 -17.96 
2105 -17.72 
2106 -17.54 
2107 -17.42 
2108 17.47 
2109 17.87 
2110 17.54 
2111 17.26 
2112 17.06 
2113 16.92 
2114 16.81 
2115 -19.34 
2116 -18.42 
2117 -18.08 
2118 -17.85 
2119 -17.65 
2120 -17.54 
2121 -17.40 
2122 18.55 
2123 17.76 
2124 17.42 
2125 17.20 
2126 17.02 
2127 16.90 
2128 16.74 
2129 -18.96 
2130 -18.26 
2131 -17.99 
2132 -17.78 
2133 -17.60 
2134 -17.47 
2135 -17.76 
2136 18.28 
2137 17.60 
2138 17.38 
2139 17.15 
2140 16.97 
2141 16.81 
2142 1.288 
2143 -18.60 
2144 -18.17 
2145 -17.94 
2146 -17.74 
2147 -17.56 
2148 -17.42 
2149 13.20 
2150 17.92 
2151 17.56 
2152 17.29 
2153 17.08 
2154 16.92 
2155 16.81 
2156 -19.84 
2157 -18.42 
2158 -18.10 
2159 -17.85 
2160 -17.65 
2161 -17.51 
2162 -17.40 
2163 18.64 
2164 17.78 
2165 17.42 
2166 17.20 
2167 17.04 
2168 16.90 
2169 16.81 
2170 -19.00 
2171 -18.30 
2172 -18.01 
2173 -17.76 
2174 -17.63 
2175 -17.44 
2176 -17.76 
2177 18.33 
2178 17.65 
2179 17.35 
2180 17.17 
2181 16.99 
2182 16.83 
2183 15.52 
2184 -18.78 
2185 -18.17 
2186 -17.92 
2187 -17.72 
2188 -17.54 
2189 -17.40 
2190 7.073 
2191 18.03 
2192 17.54 
2193 17.31 
2194 17.11 
2195 16.88 
2196 16.79 
2197 -20.77 
2198 -18.39 
2199 -18.08 
2200 -17.85 
2201 -17.65 
2202 -17.49 
2203 -17.38 
2204 18.87 
2205 17.78 
2206 17.44 
2207 17.24 
2208 17.04 
2209 16.90 
2210 16.81 
2211 -19.00 
2212 -18.30 
2213 -17.99 
2214 -17.76 
2215 -17.56 
2216 -17.44 
2217 -17.92 
2218 18.37 
2219 17.54 
2220 17.35 
2221 17.17 
2222 16.99 
2223 16.88 
2224 17.04 
2225 -18.82 
2226 -18.19 
2227 -17.92 
2228 -17.72 
2229 -17.58 
2230 -17.44 
2231 -1.198 
2232 17.99 
2233 17.56 
2234 17.31 
2235 17.11 
2236 16.97 
2237 16.81 
2238 -20.04 
2239 -18.42 
2240 -18.10 
2241 -17.87 
2242 -17.67 
2243 -17.49 
2244 -17.38 
2245 19.25 
2246 17.76 
2247 17.47 
2248 17.26 
2249 17.04 
2250 16.90 
2251 16.77 
2252 -19.05 
2253 -18.30 
2254 -18.05 
2255 -17.78 
2256 -17.60 
2257 -17.44 
2258 -17.47 
2259 18.39 
2260 17.67 
2261 17.40 
2262 17.15 
2263 16.99 
2264 16.88 
2265 17.04 
2266 -18.85 
2267 -18.21 
2268 -17.94 
2269 -17.72 
2270 -17.58 
2271 -17.44 
2272 -12.63 
2273 18.15 
2274 17.56 
2275 17.29 
2276 17.13 
2277 16.97 
2278 16.81 
2279 -16.50 
2280 -18.48 
2281 -18.10 
2282 -17.90 
2283 -17.67 
2284 -17.51 
2285 -17.38 
2286 19.07 
2287 17.81 
2288 17.49 
2289 17.24 
2290 17.08 
2291 16.88 
2292 16.77 
2293 -19.12 
2294 -18.30 
2295 -18.03 
2296 -17.81 
2297 -17.60 
2298 -17.44 
2299 -17.35 
2300 18.44 
2301 17.72 
2302 17.42 
2303 17.17 
2304 17.02 
2305 16.88 
2306 16.99 
2307 -18.85 
2308 -18.21 
2309 -17.92 
2310 -17.72 
2311 -17.51 
2312 -17.42 
2313 -17.74 
2314 18.26 
2315 17.60 
2316 17.33 
2317 17.11 
2318 16.97 
2319 16.86 
2320 -11.68 
2321 -18.53 
2322 -18.08 
2323 -17.83 
2324 -17.65 
2325 -17.49 
2326 -17.38 
2327 18.82 
2328 17.87 
2329 17.51 
2330 17.26 
2331 17.08 
2332 16.92 
2333 16.79 
2334 -19.18 
2335 -18.33 
2336 -18.01 
2337 -17.78 
2338 -17.60 
2339 -17.42 
2340 -17.31 
2341 18.48 
2342 17.72 
2343 17.42 
2344 17.22 
2345 16.99 
2346 16.88 
2347 16.77 
2348 -18.87 
2349 -18.21 
2350 -17.94 
2351 -17.72 
2352 -17.54 
2353 -17.38 
2354 -17.74 
2355 18.28 
2356 17.60 
2357 17.35 
2358 17.13 
2359 16.95 
2360 16.86 
2361 -3.954 
2362 -18.66 
2363 -18.12 
2364 -17.83 
2365 -17.63 
2366 -17.51 
2367 -17.38 
2368 15.66 
2369 17.92 
2370 17.51 
2371 17.26 
2372 17.08 
2373 16.92 
2374 16.81 
2375 -19.46 
2376 -18.35 
2377 -18.01 
2378 -17.78 
2379 -17.60 
2380 -17.47 
2381 -17.31 
2382 18.55 
2383 17.72 
2384 17.42 
2385 17.22 
2386 17.02 
2387 16.88 
2388 16.77 
2389 -18.89 
2390 -18.24 
2391 -17.94 
2392 -17.72 
2393 -17.56 
2394 -17.40 
2395 -17.72 
2396 18.28 
2397 17.63 
2398 17.35 
2399 17.17 
2400 16.95 
2401 16.83 
2402 7.931 
2403 -18.62 
2404 -18.15 
2405 -17.87 
2406 -17.67 
2407 -17.47 
2408 -17.38 
2409 10.42 
2410 17.99 
2411 17.51 
2412 17.26 
2413 17.08 
2414 16.90 
2415 16.81 
2416 -20.04 
2417 -18.35 
2418 -18.01 
2419 -17.78 
2420 -17.58 
2421 -17.47 
2422 -17.33 
2423 18.71 
2424 17.76 
2425 17.40 
2426 17.20 
2427 17.04 
2428 16.90 
2429 16.74 
2430 -18.94 
2431 -18.19 
2432 -17.90 
2433 -17.72 
2434 -17.54 
2435 -17.35 
2436 -17.76 
2437 18.35 
2438 17.63 
2439 17.35 
2440 17.15 
2441 16.99 
2442 16.83 
2443 16.99 
2444 -18.71 
2445 -18.12 
2446 -17.87 
2447 -17.65 
2448 -17.47 
2449 -17.33 
2450 3.502 
2451 18.08 
2452 17.65 
2453 17.31 
2454 17.06 
2455 16.92 
2456 16.81 
2457 -21.01 
2458 -18.35 
2459 -18.03 
2460 -17.76 
2461 -17.58 
2462 -17.44 
2463 -17.31 
2464 19.07 
2465 17.78 
2466 17.44 
2467 17.20 
2468 17.04 
2469 16.90 
2470 16.77 
2471 -19.00 
2472 -18.21 
2473 -17.92 
2474 -17.69 
2475 -17.54 
2476 -17.40 
2477 -17.90 
2478 18.35 
2479 17.65 
2480 17.35 
2481 17.17 
2482 16.99 
2483 16.83 
2484 17.02 
2485 -18.76 
2486 -18.12 
2487 -17.85 
2488 -17.67 
2489 -17.47 
2490 -17.35 
2491 -5.785 
2492 18.03 
2493 17.56 
2494 17.31 
2495 17.08 
2496 16.95 
2497 16.81 
2498 -18.37 
2499 -18.39 
2500 -18.03 
2501 -17.78 
2502 -17.58 
2503 -17.42 
2504 -17.33 
2505 19.18 
2506 17.78 
2507 17.49 
2508 17.22 
2509 17.04 
2510 16.88 
2511 16.79 
2512 -19.03 
2513 -18.28 
2514 -17.94 
2515 -17.72 
2516 -17.54 
2517 -17.40 
2518 -17.31 
2519 18.39 
2520 17.67 
2521 17.38 
2522 17.15 
2523 17.02 
2524 16.88 
2525 16.99 
2526 -18.78 
2527 -18.15 
2528 -17.85 
2529 -17.65 
2530 -17.47 
2531 -17.35 
2532 -16.74 
2533 18.17 
2534 17.54 
2535 17.31 
2536 17.11 
2537 16.95 
2538 16.79 
2539 -14.73 
2540 -18.42 
2541 -18.05 
2542 -17.81 
2543 -17.58 
2544 -17.40 
2545 -17.31 
2546 -17.22 
2547 -17.13 
2548 -17.06 
2549 -17.04 
2550 -16.97 
2551 -16.92 
2552 -16.88 
2553 19.07 
2554 17.99 
2555 17.63 
2556 17.40 
2557 17.17 
2558 16.97 
2559 16.83 
2560 16.74 
2561 16.65 
2562 16.56 
2563 16.50 
2564 16.45 
2565 16.43 
2566 16.47 
2567 -19.07 
2568 -18.37 
2569 -18.03 
2570 -17.78 
2571 -17.60 
2572 -17.38 
2573 -17.31 
2574 -17.22 
2575 -17.15 
2576 -17.06 
2577 -16.99 
2578 -16.95 
2579 -16.95 
2580 2.440 
2581 18.39 
2582 17.76 
2583 17.44 
2584 17.22 
2585 17.04 
2586 16.92 
2587 16.77 
2588 16.65 
2589 16.61 
2590 16.52 
2591 16.50 
2592 16.43 
2593 16.41 
2594 -19.48 
2595 -18.51 
2596 -18.17 
2597 -17.87 
2598 -17.65 
2599 -17.44 
2600 -17.33 
2601 -17.24 
2602 -17.13 
2603 -17.06 
2604 -17.04 
2605 -16.99 
2606 -16.95 
2607 -17.47 
2608 18.64 
2609 17.90 
2610 17.56 
2611 17.31 
2612 17.11 
2613 16.95 
2614 16.81 
2615 16.74 
2616 16.61 
2617 16.56 
2618 16.50 
2619 16.45 
2620 16.43 
2621 -0.655 
2622 -18.89 
2623 -18.26 
2624 -17.94 
2625 -17.74 
2626 -17.54 
2627 -17.38 
2628 -17.26 
2629 -17.20 
2630 -17.13 
2631 -17.04 
2632 -16.99 
2633 -16.92 
2634 -16.92 
2635 19.43 
2636 18.03 
2637 17.67 
2638 17.35 
2639 17.17 
2640 17.02 
2641 16.88 
2642 16.72 
2643 16.65 
2644 16.59 
2645 16.52 
2646 16.43 
2647 16.43 
2648 16.41 
2649 -19.14 
2650 -18.44 
2651 -18.10 
2652 -17.83 
2653 -17.60 
2654 -17.47 
2655 -17.35 
2656 -17.24 
2657 -17.17 
2658 -17.11 
2659 -17.06 
2660 -17.02 
2661 -16.99 
2662 -16.83 
2663 18.46 
2664 17.78 
2665 17.51 
2666 17.24 
2667 17.06 
2668 16.90 
2669 16.79 
2670 16.68 
2671 16.59 
2672 16.54 
2673 16.47 
2674 16.45 
2675 16.38 
2676 -20.65 
2677 -18.64 
2678 -18.26 
2679 -18.03 
2680 -17.81 
2681 -17.63 
2682 -17.47 
2683 18.69 
2684 17.69 
2685 17.40 
2686 17.15 
2687 16.99 
2688 16.81 
2689 16.74 
2690 -19.05 
2691 -18.35 
2692 -18.08 
2693 -17.85 
2694 -17.67 
2695 -17.49 
2696 -17.40 
2697 -17.33 
2698 -17.24 
2699 -17.20 
2700 -17.15 
2701 -17.08 
2702 -17.06 
2703 -17.47 
2704 18.53 
2705 17.83 
2706 17.54 
2707 17.29 
2708 17.08 
2709 16.90 
2710 16.79 
2711 16.70 
2712 16.63 
2713 16.54 
2714 16.47 
2715 16.47 
2716 16.41 
2717 -21.42 
2718 -18.78 
2719 -18.39 
2720 -18.12 
2721 -17.90 
2722 -17.74 
2723 -17.58 
2724 -17.44 
2725 -17.38 
2726 -17.33 
2727 -17.24 
2728 -17.15 
2729 -17.17 
2730 -17.13 
2731 18.82 
2732 17.96 
2733 17.63 
2734 17.33 
2735 17.13 
2736 16.99 
2737 16.88 
2738 16.70 
2739 16.63 
2740 16.56 
2741 16.52 
2742 16.43 
2743 16.43 
2744 16.65 
2745 -19.25 
2746 -18.57 
2747 -18.26 
2748 -17.99 
2749 -17.78 
2750 -17.67 
2751 -8.609 
2752 18.01 
2753 17.51 
2754 17.26 
2755 17.04 
2756 16.90 
2757 16.79 
2758 -18.17 
2759 -18.62 
2760 -18.26 
2761 -17.99 
2762 -17.78 
2763 -17.67 
2764 -17.54 
2765 -17.42 
2766 -17.35 
2767 -17.29 
2768 -17.24 
2769 -17.20 
2770 -17.13 
2771 -17.13 
2772 18.91 
2773 17.99 
2774 17.63 
2775 17.35 
2776 17.13 
2777 16.97 
2778 16.88 
2779 16.72 
2780 16.63 
2781 16.56 
2782 16.50 
2783 16.45 
2784 16.38 
2785 16.63 
2786 -19.27 
2787 -18.55 
2788 -18.26 
2789 -18.03 
2790 -17.85 
2791 -17.65 
2792 -17.81 
2793 18.12 
2794 17.51 
2795 17.26 
2796 17.04 
2797 16.90 
2798 16.77 
2799 -14.10 
2800 -18.71 
2801 -18.28 
2802 -18.01 
2803 -17.78 
2804 -17.65 
2805 -17.54 
2806 -17.42 
2807 -17.31 
2808 -17.24 
2809 -17.22 
2810 -17.15 
2811 -17.11 
2812 -17.06 
2813 19.14 
2814 18.01 
2815 17.65 
2816 17.40 
2817 17.17 
2818 16.99 
2819 16.88 
2820 16.77 
2821 16.65 
2822 16.56 
2823 16.54 
2824 16.47 
2825 16.43 
2826 16.43 
2827 -19.25 
2828 -18.53 
2829 -18.24 
2830 -17.99 
2831 -17.81 
2832 -17.60 
2833 -17.49 
2834 -17.38 
2835 -17.31 
2836 -17.22 
2837 -17.17 
2838 -17.15 
2839 -17.08 
2840 0.000 
2841 18.44 
2842 17.78 
2843 17.47 
2844 17.24 
2845 17.08 
2846 16.90 
2847 16.79 
2848 16.70 
2849 16.61 
2850 16.56 
2851 16.47 
2852 16.45 
2853 16.41 
2854 -19.68 
2855 -18.69 
2856 -18.33 
2857 -18.03 
2858 -17.83 
2859 -17.67 
2860 -17.54 
2861 -17.40 
2862 -17.33 
2863 -17.26 
2864 -17.20 
2865 -17.13 
2866 -17.08 
2867 -17.35 
2868 18.69 
2869 17.92 
2870 17.58 
2871 17.33 
2872 17.13 
2873 16.97 
2874 16.83 
2875 16.74 
2876 16.63 
2877 16.56 
2878 16.52 
2879 16.47 
2880 16.43 
2881 2.192 
2882 -18.89 
2883 -18.44 
2884 -18.15 
2885 -17.92 
2886 -17.74 
2887 -17.56 
2888 -17.47 
2889 -17.35 
2890 -17.26 
2891 -17.20 
2892 -17.20 
2893 -17.13 
2894 -17.08 
2895 19.43 
2896 18.05 
2897 17.69 
2898 17.42 
2899 17.22 
2900 17.04 
2901 16.88 
2902 16.74 
2903 16.68 
2904 16.61 
2905 16.52 
2906 16.47 
2907 16.45 
2908 16.43 
2909 -19.37 
2910 -18.60 
2911 -18.24 
2912 -17.96 
2913 -17.78 
2914 -17.63 
2915 -17.47 
2916 -17.40 
2917 -17.31 
2918 -17.24 
2919 -17.17 
2920 -17.11 
2921 -17.08 
2922 -17.47 
2923 18.51 
2924 17.83 
2925 17.51 
2926 17.24 
2927 17.08 
2928 16.95 
2929 16.81 
2930 16.70 
2931 16.63 
2932 16.56 
2933 16.52 
2934 16.43 
2935 16.41 
2936 -21.20 
2937 -18.71 
2938 -18.35 
2939 -18.10 
2940 -17.85 
2941 -17.65 
2942 -17.54 
2943 -17.42 
2944 -17.33 
2945 -17.24 
2946 -17.17 
2947 -17.15 
2948 -17.11 
2949 -17.06 
2950 18.78 
2951 17.94 
2952 17.60 
2953 17.38 
2954 17.13 
2955 16.97 
2956 16.86 
2957 16.74 
2958 16.65 
2959 16.56 
2960 16.52 
2961 16.45 
2962 16.45 
2963 16.68 
2964 -19.14 
2965 -18.46 
2966 -18.17 
2967 -17.92 
2968 -17.74 
2969 -17.58 
2970 -17.44 
2971 -17.38 
2972 -17.29 
2973 -17.22 
2974 -17.15 
2975 -17.11 
2976 -17.08 
2977 16.74 
2978 18.17 
2979 17.74 
2980 17.42 
2981 17.22 
2982 17.02 
2983 16.92 
2984 16.77 
2985 16.68 
2986 16.59 
2987 16.56 
2988 16.47 
2989 16.43 
2990 16.41 
2991 -19.39 
2992 -18.62 
2993 -18.28 
2994 -17.99 
2995 -17.78 
2996 -17.63 
2997 -17.51 
2998 -17.42 
2999 -17.29 
3000 -17.26 
3001 -17.20 
3002 -17.13 
3003 -17.08 
3004 -17.49 
3005 18.55 
3006 17.83 
3007 17.54 
3008 17.29 
3009 17.08 
3010 16.92 
3011 16.81 
3012 16.72 
3013 16.61 
3014 16.50 
3015 16.50 
3016 16.47 
3017 16.43 
3018 -17.08 
3019 -18.80 
3020 -18.35 
3021 -18.08 
3022 -17.90 
3023 -17.69 
3024 -17.54 
3025 19.00 
3026 17.74 
3027 17.42 
3028 17.22 
3029 17.02 
3030 16.88 
3031 16.74 
3032 -19.18 
3033 -18.37 
3034 -18.08 
3035 -17.85 
3036 -17.67 
3037 -17.51 
3038 -17.42 
3039 -17.31 
3040 -17.24 
3041 -17.13 
3042 -17.11 
3043 -17.08 
3044 -17.06 
3045 -17.47 
3046 18.64 
3047 17.81 
3048 17.56 
3049 17.31 
3050 17.13 
3051 16.95 
3052 16.81 
3053 16.72 
3054 16.63 
3055 16.54 
3056 16.50 
3057 16.47 
3058 16.45 
3059 -12.34 
3060 -18.85 
3061 -18.35 
3062 -18.08 
3063 -17.85 
3064 -17.67 
3065 -17.51 
3066 -17.38 
3067 -17.29 
3068 -17.24 
3069 -17.15 
3070 -17.11 
3071 -17.06 
3072 -17.06 
3073 19.23 
3074 18.03 
3075 17.67 
3076 17.38 
3077 17.20 
3078 16.99 
3079 16.88 
3080 16.74 
3081 16.65 
3082 16.59 
3083 16.52 
3084 16.47 
3085 16.41 
3086 16.41 
3087 -19.18 
3088 -18.48 
3089 -18.17 
3090 -17.92 
3091 -17.69 
3092 -17.54 
3093 -17.47 
3094 -17.33 
3095 -17.22 
3096 -17.17 
3097 -17.13 
3098 -17.06 
3099 -17.04 
3100 -2.373 
3101 18.26 
3102 17.78 
3103 17.49 
3104 17.26 
3105 17.04 
3106 16.90 
3107 16.79 
3108 16.68 
3109 16.61 
3110 16.54 
3111 16.54 
3112 16.47 
3113 16.43 
3114 -19.75 
3115 -18.62 
3116 -18.26 
3117 -18.05 
3118 -17.83 
3119 -17.60 
3120 -17.44 
3121 18.51 
3122 17.65 
3123 17.38 
3124 17.17 
3125 16.99 
3126 16.83 
3127 16.74 
3128 -18.96 
3129 -18.28 
3130 -18.01 
3131 -17.81 
3132 -17.60 
3133 -17.44 
3134 -17.35 
3135 -17.29 
3136 -17.17 
3137 -17.11 
3138 -17.06 
3139 -17.06 
3140 -17.02 
3141 -13.35 
3142 18.44 
3143 17.78 
3144 17.49 
3145 17.29 
3146 17.11 
3147 16.90 
3148 16.79 
3149 16.72 
3150 16.61 
3151 16.54 
3152 16.50 
3153 16.45 
3154 16.43 
3155 -20.27 
3156 -18.64 
3157 -18.28 
3158 -17.99 
3159 -17.78 
3160 -17.63 
3161 -17.47 
3162 -17.35 
3163 -17.24 
3164 -17.22 
3165 -17.13 
3166 -17.08 
3167 -17.02 
3168 -17.04 
3169 18.73 
3170 17.94 
3171 17.60 
3172 17.33 
3173 17.13 
3174 16.99 
3175 16.88 
3176 16.72 
3177 16.63 
3178 16.56 
3179 16.52 
3180 16.43 
3181 16.43 
3182 16.68 
3183 -19.03 
3184 -18.39 
3185 -18.08 
3186 -17.85 
3187 -17.65 
3188 -17.49 
3189 4.587 
3190 18.01 
3191 17.49 
3192 17.26 
3193 17.04 
3194 16.92 
3195 16.79 
3196 -21.20 
3197 -18.42 
3198 -18.12 
3199 -17.85 
3200 -17.63 
3201 -17.51 
3202 -17.38 
3203 18.98 
3204 17.78 
3205 17.47 
3206 17.20 
3207 17.06 
3208 16.92 
3209 16.77 
3210 -19.05 
3211 -18.28 
3212 -17.96 
3213 -17.76 
3214 -17.63 
3215 -17.44 
3216 -17.96 
3217 18.39 
3218 17.65 
3219 17.38 
3220 17.02 
3221 17.02 
3222 16.83 
3223 17.02 
3224 -18.80 
3225 -18.17 
3226 -17.92 
3227 -17.72 
3228 -17.51 
3229 -17.42 
3230 -4.022 
3231 18.01 
3232 17.58 
3233 17.31 
3234 17.11 
3235 16.95 
3236 16.81 
3237 -19.03 
3238 -18.44 
3239 -18.10 
3240 -17.85 
3241 -17.67 
3242 -17.42 
3243 -17.38 
3244 19.21 
3245 17.81 
3246 17.47 
3247 17.22 
3248 17.04 
3249 16.90 
3250 16.79 
3251 -19.05 
3252 -18.30 
3253 -18.01 
3254 -17.76 
3255 -17.65 
3256 -17.44 
3257 -17.35 
3258 18.42 
3259 17.65 
3260 17.38 
3261 17.15 
3262 17.02 
3263 16.88 
3264 16.99 
3265 -18.82 
3266 -18.19 
3267 -17.90 
3268 -17.74 
3269 -17.51 
3270 -17.44 
3271 -15.25 
3272 18.17 
3273 17.58 
3274 17.31 
3275 17.11 
3276 16.92 
3277 16.81 
3278 -15.66 
3279 -18.46 
3280 -18.12 
3281 -17.85 
3282 -17.65 
3283 -17.47 
3284 -17.35 
3285 19.03 
3286 17.81 
3287 17.49 
3288 17.26 
3289 17.04 
3290 16.90 
3291 16.79 
3292 -19.12 
3293 -18.30 
3294 -18.01 
3295 -17.76 
3296 -17.58 
3297 -17.47 
3298 -17.33 
3299 18.46 
3300 17.72 
3301 17.40 
3302 17.15 
3303 17.02 
3304 16.88 
3305 16.92 
3306 -18.87 
3307 -18.19 
3308 -17.90 
3309 -17.69 
3310 -17.56 
3311 -17.40 
3312 -17.72 
3313 18.24 
3314 17.56 
3315 17.33 
3316 17.13 
3317 16.99 
3318 16.81 
3319 -10.21 
3320 -18.55 
3321 -18.08 
3322 -17.85 
3323 -17.65 
3324 -17.47 
3325 -17.33 
3326 18.37 
3327 17.83 
3328 17.51 
3329 17.26 
3330 17.06 
3331 16.90 
3332 16.77 
3333 -19.21 
3334 -18.30 
3335 -18.01 
3336 -17.76 
3337 -17.56 
3338 -17.42 
3339 -17.33 
3340 18.51 
3341 17.74 
3342 17.42 
3343 17.17 
3344 17.02 
3345 16.88 
3346 16.77 
3347 -18.87 
3348 -18.21 
3349 -17.92 
3350 -17.69 
3351 -17.54 
3352 -17.42 
3353 -17.72 
3354 18.28 
3355 17.63 
3356 17.33 
3357 17.13 
3358 16.97 
3359 16.83 
3360 -1.876 
3361 -18.66 
3362 -18.10 
3363 -17.83 
3364 -17.65 
3365 -17.49 
3366 -17.38 
3367 14.69 
3368 17.90 
3369 17.51 
3370 17.24 
3371 17.08 
3372 16.90 
3373 16.79 
3374 -19.50 
3375 -18.30 
3376 -18.03 
3377 -17.78 
3378 -17.58 
3379 -17.42 
3380 -17.31 
3381 18.55 
3382 17.72 
3383 17.44 
3384 17.22 
3385 17.02 
3386 16.83 
3387 16.77 
3388 -18.89 
3389 -18.24 
3390 -17.94 
3391 -17.72 
3392 -17.56 
3393 -17.42 
3394 -17.72 
3395 18.30 
3396 17.63 
3397 17.35 
3398 17.11 
3399 16.95 
3400 16.83 
3401 11.00 
3402 -18.66 
3403 -18.10 
3404 -17.85 
3405 -17.65 
3406 -17.51 
3407 -17.35 
3408 9.129 
3409 18.01 
3410 17.51 
3411 17.29 
3412 17.08 
3413 16.95 
3414 16.79 
3415 -20.27 
3416 -18.33 
3417 -18.01 
3418 -17.78 
3419 -17.60 
3420 -17.44 
3421 -17.29 
3422 18.73 
3423 17.74 
3424 17.44 
3425 17.33 
3426 17.02 
3427 16.88 
3428 16.77 
3429 -18.91 
3430 -18.21 
3431 -17.94 
3432 -17.72 
3433 -17.54 
3434 -17.38 
3435 -17.81 
3436 18.33 
3437 17.65 
3438 17.38 
3439 17.13 
3440 16.95 
3441 16.83 
3442 17.04 
3443 -18.73 
3444 -18.12 
3445 -17.85 
3446 -17.63 
3447 -17.47 
3448 -17.35 
3449 1.672 
3450 18.12 
3451 17.54 
3452 17.26 
3453 17.08 
3454 16.90 
3455 16.81 
3456 -20.74 
3457 -18.33 
3458 -17.99 
3459 -17.76 
3460 -17.58 
3461 -17.40 
3462 -17.31 
3463 19.23 
3464 17.81 
3465 17.47 
3466 17.24 
3467 17.06 
3468 16.88 
3469 16.77 
3470 -18.98 
3471 -18.19 
3472 -17.94 
3473 -17.69 
3474 -17.54 
3475 -17.35 
3476 -17.78 
3477 18.37 
3478 17.67 
3479 17.38 
3480 17.17 
3481 16.97 
3482 16.86 
3483 17.02 
3484 -18.71 
3485 -18.10 
3486 -17.87 
3487 -17.63 
3488 -17.49 
3489 -17.35 
3490 -8.361 
3491 18.08 
3492 17.58 
3493 17.29 
3494 17.08 
3495 16.95 
3496 16.81 
3497 -17.47 
3498 -18.42 
3499 -18.03 
3500 -17.78 
3501 -17.58 
3502 -17.47 
3503 -17.29 
3504 19.09 
3505 17.83 
3506 17.44 
3507 17.22 
3508 17.06 
3509 16.92 
3510 16.77 
3511 -19.05 
3512 -18.24 
3513 -17.92 
3514 -17.72 
3515 -17.54 
3516 -17.35 
3517 -17.24 
3518 18.39 
3519 17.67 
3520 17.40 
3521 17.17 
3522 16.97 
3523 16.83 
3524 17.02 
3525 -18.76 
3526 -18.15 
3527 -17.87 
3528 -17.65 
3529 -17.47 
3530 -17.33 
3531 -17.29 
3532 -17.15 
3533 -17.08 
3534 -16.99 
3535 -16.99 
3536 -16.95 
3537 -16.90 
3538 7.931 
3539 18.30 
3540 17.72 
3541 17.47 
3542 17.22 
3543 17.04 
3544 16.88 
3545 16.79 
3546 16.68 
3547 16.61 
3548 16.52 
3549 16.45 
3550 16.45 
3551 16.38 
3552 -19.41 
3553 -18.53 
3554 -18.15 
3555 -17.85 
3556 -17.67 
3557 -17.49 
3558 -17.35 
3559 18.39 
3560 17.63 
3561 17.33 
3562 17.13 
3563 16.97 
3564 16.83 
3565 16.72 
3566 -18.82 
3567 -18.15 
3568 -17.85 
3569 -17.65 
3570 -17.49 
3571 -17.33 
3572 -17.65 
3573 18.24 
3574 17.58 
3575 17.33 
3576 17.13 
3577 16.92 
3578 16.81 
3579 -6.734 
3580 -18.55 
3581 -18.05 
3582 -17.81 
3583 -17.60 
3584 -17.44 
3585 -17.33 
3586 16.97 
3587 17.87 
3588 17.51 
3589 17.26 
3590 17.04 
3591 16.92 
3592 16.81 
3593 -19.27 
3594 -18.33 
3595 -17.99 
3596 -17.76 
3597 -17.58 
3598 -17.44 
3599 -17.33 
3600 18.55 
3601 17.74 
3602 17.42 
3603 17.17 
3604 17.04 
3605 16.88 
3606 16.74 
3607 -18.94 
3608 -18.26 
3609 -17.96 
3610 -17.76 
3611 -17.58 
3612 -17.44 
3613 -17.74 
3614 18.26 
3615 17.60 
3616 17.35 
3617 17.08 
3618 16.97 
3619 16.79 
3620 3.186 
3621 -18.64 
3622 -18.21 
3623 -17.99 
3624 -17.76 
3625 -17.58 
3626 -17.47 
3627 12.29 
3628 17.94 
3629 17.54 
3630 17.24 
3631 17.06 
3632 16.92 
3633 16.81 
3634 -19.79 
3635 -18.51 
3636 -18.17 
3637 -17.96 
3638 -17.72 
3639 -17.58 
3640 -17.51 
3641 18.66 
3642 17.76 
3643 17.44 
3644 17.17 
3645 16.99 
3646 16.88 
3647 16.79 
3648 -19.09 
3649 -18.42 
3650 -18.10 
3651 -17.87 
3652 -17.74 
3653 -17.60 
3654 -17.92 
3655 18.30 
3656 17.63 
3657 17.33 
3658 17.13 
3659 16.99 
3660 16.83 
3661 16.61 
3662 -18.94 
3663 -18.30 
3664 -18.03 
3665 -17.85 
3666 -17.67 
3667 -17.54 
3668 -17.44 
3669 -17.38 
3670 -17.29 
3671 -17.22 
3672 -17.17 
3673 -17.17 
3674 -17.13 
3675 19.23 
3676 18.10 
3677 17.72 
3678 17.42 
3679 17.20 
3680 17.04 
3681 16.88 
3682 16.74 
3683 16.68 
3684 16.61 
3685 16.52 
3686 16.45 
3687 16.43 
3688 16.41 
3689 -19.41 
3690 -18.64 
3691 -18.30 
3692 -18.03 
3693 -17.83 
3694 -17.69 
3695 -17.54 
3696 -17.42 
3697 -17.31 
3698 -17.26 
3699 -17.22 
3700 -17.15 
3701 -17.13 
3702 -17.54 
3703 18.46 
3704 17.83 
3705 17.54 
3706 17.26 
3707 17.08 
3708 16.92 
3709 16.81 
3710 16.68 
3711 16.61 
3712 16.54 
3713 16.50 
3714 16.45 
3715 16.41 
3716 -20.16 
3717 -18.78 
3718 -18.39 
3719 -18.12 
3720 -17.90 
3721 -17.69 
3722 -17.54 
3723 -17.47 
3724 -17.38 
3725 -17.26 
3726 -17.22 
3727 -17.17 
3728 -17.15 
3729 -17.06 
3730 18.85 
3731 17.96 
3732 17.60 
3733 17.38 
3734 17.15 
3735 16.99 
3736 16.86 
3737 16.72 
3738 16.65 
3739 16.59 
3740 16.50 
3741 16.47 
3742 16.45 
3743 16.68 
3744 -19.23 
3745 -18.53 
3746 -18.21 
3747 -17.94 
3748 -17.78 
3749 -17.63 
3750 -17.49 
3751 -17.38 
3752 -17.33 
3753 -17.24 
3754 -17.17 
3755 -17.13 
3756 -17.15 
3757 11.43 
3758 18.24 
3759 17.74 
3760 17.44 
3761 17.20 
3762 17.04 
3763 16.90 
3764 16.79 
3765 16.65 
3766 16.59 
3767 16.54 
3768 16.50 
3769 16.43 
3770 16.38 
3771 -19.52 
3772 -18.64 
3773 -18.33 
3774 -18.03 
3775 -17.83 
3776 -17.65 
3777 -17.54 
3778 -17.42 
3779 -17.33 
3780 -17.26 
3781 -17.20 
3782 -17.15 
3783 -17.08 
3784 -17.51 
3785 18.62 
3786 17.85 
3787 17.56 
3788 17.31 
3789 17.11 
3790 16.95 
3791 16.81 
3792 16.72 
3793 16.63 
3794 16.54 
3795 16.50 
3796 16.47 
3797 16.43 
3798 -11.61 
3799 -18.89 
3800 -18.42 
3801 -18.10 
3802 -17.90 
3803 -17.72 
3804 -17.54 
3805 -17.42 
3806 -17.38 
3807 -17.24 
3808 -17.20 
3809 -17.11 
3810 -17.11 
3811 -17.06 
3812 19.34 
3813 18.03 
3814 17.65 
3815 17.35 
3816 17.17 
3817 17.02 
3818 16.88 
3819 16.74 
3820 16.63 
3821 16.61 
3822 16.50 
3823 16.47 
3824 16.41 
3825 16.41 
3826 -19.25 
3827 -18.55 
3828 -18.21 
3829 -17.99 
3830 -17.76 
3831 -17.63 
3832 -17.47 
3833 -17.38 
3834 -17.26 
3835 -17.22 
3836 -17.17 
3837 -17.11 
3838 -17.11 
3839 -4.248 
3840 18.26 
3841 17.78 
3842 17.49 
3843 17.24 
3844 17.06 
3845 16.92 
3846 16.81 
3847 16.70 
3848 16.59 
3849 16.52 
3850 16.50 
3851 16.45 
3852 16.41 
3853 -19.86 
3854 -18.73 
3855 -18.33 
3856 -18.08 
3857 -17.85 
3858 -17.67 
3859 -17.54 
3860 -17.44 
3861 -17.35 
3862 -17.26 
3863 -17.17 
3864 -17.15 
3865 -17.15 
3866 -17.08 
3867 18.69 
3868 17.92 
3869 17.56 
3870 17.31 
3871 17.13 
3872 16.95 
3873 16.81 
3874 16.70 
3875 16.63 
3876 16.59 
3877 16.50 
3878 16.43 
3879 16.41 
3880 7.999 
3881 -19.03 
3882 -18.48 
3883 -18.15 
3884 -17.92 
3885 -17.74 
3886 -17.60 
3887 -17.47 
3888 -17.38 
3889 -17.29 
3890 -17.24 
3891 -17.15 
3892 -17.13 
3893 -17.08 
3894 19.34 
3895 18.05 
3896 17.69 
3897 17.42 
3898 17.11 
3899 16.99 
3900 16.88 
3901 16.77 
3902 16.61 
3903 16.56 
3904 16.52 
3905 16.47 
3906 16.41 
3907 16.38 
3908 -19.34 
3909 -18.57 
3910 -18.26 
3911 -18.01 
3912 -17.78 
3913 -17.63 
3914 -17.47 
3915 -17.40 
3916 -17.31 
3917 -17.22 
3918 -17.17 
3919 -17.15 
3920 -17.08 
3921 -17.47 
3922 18.51 
3923 17.78 
3924 17.49 
3925 17.26 
3926 17.08 
3927 16.90 
3928 16.81 
3929 16.70 
3930 16.61 
3931 16.54 
3932 16.47 
3933 16.45 
3934 16.43 
3935 -21.51 
3936 -18.71 
3937 -18.37 
3938 -18.05 
3939 -17.83 
3940 -17.67 
3941 -17.54 
3942 19.03 
3943 17.72 
3944 17.40 
3945 17.17 
3946 17.02 
3947 16.88 
3948 16.77 
3949 -19.09 
3950 -18.35 
3951 -18.03 
3952 -17.85 
3953 -17.65 
3954 -17.51 
3955 -18.01 
3956 18.37 
3957 17.65 
3958 17.38 
3959 17.17 
3960 16.99 
3961 16.88 
3962 17.02 
3963 -18.82 
3964 -18.19 
3965 -17.94 
3966 -17.76 
3967 -17.54 
3968 -17.42 
3969 -5.920 
3970 18.03 
3971 17.58 
3972 17.33 
3973 17.13 
3974 16.95 
3975 16.83 
3976 -18.57 
3977 -18.48 
3978 -18.12 
3979 -17.85 
3980 -17.67 
3981 -17.51 
3982 -17.42 
3983 19.18 
3984 17.83 
3985 17.47 
3986 17.24 
3987 17.06 
3988 16.90 
3989 16.79 
3990 -19.12 
3991 -18.33 
3992 -18.01 
3993 -17.81 
3994 -17.60 
3995 -17.49 
3996 -17.35 
3997 18.42 
3998 17.67 
3999 17.49 
4000 17.20 
4001 17.02 
4002 16.83 
4003 16.99 
4004 -18.87 
4005 -18.24 
4006 -17.99 
4007 -17.74 
4008 -17.58 
4009 -17.44 
4010 -16.88 
4011 18.15 
4012 17.58 
4013 17.31 
4014 17.11 
4015 16.95 
4016 16.81 
4017 -14.85 
4018 -18.53 
4019 -18.15 
4020 -17.90 
4021 -17.67 
4022 -17.54 
4023 -17.42 
4024 19.07 
4025 17.81 
4026 17.51 
4027 17.24 
4028 17.04 
4029 16.90 
4030 16.79 
4031 -19.18 
4032 -18.35 
4033 -18.05 
4034 -17.78 
4035 -17.63 
4036 -17.49 
4037 -17.35 
4038 18.46 
4039 17.72 
4040 17.40 
4041 17.17 
4042 17.02 
4043 16.88 
4044 16.83 
4045 -18.91 
4046 -18.24 
4047 -17.94 
4048 -17.76 
4049 -17.58 
4050 -17.44 
4051 -17.74 
4052 18.24 
4053 17.58 
4054 17.33 
4055 17.15 
4056 16.97 
4057 16.81 
4058 -8.881 
4059 -18.60 
4060 -18.12 
4061 -17.87 
4062 -17.69 
4063 -17.51 
4064 -17.40 
4065 17.83 
4066 17.87 
4067 17.51 
4068 17.29 
4069 17.06 
4070 16.90 
4071 16.81 
4072 -19.27 
4073 -18.35 
4074 -18.05 
4075 -17.78 
4076 -17.60 
4077 -17.47 
4078 -17.38 
4079 18.53 
4080 17.74 
4081 17.42 
4082 17.20 
4083 17.02 
4084 16.90 
4085 16.77 
4086 -18.94 
4087 -18.24 
4088 -17.94 
4089 -17.72 
4090 -17.58 
4091 -17.42 
4092 -17.72 
4093 18.30 
4094 17.60 
4095 17.33 
4096 17.15 
4097 16.99 
