<?xml version="1.0" encoding="UTF-8"?>
<Profile>
<triggerMode>AUTO</triggerMode>
<triggerKind>EdgeFalling</triggerKind>
<triggerLevel>24.0V</triggerLevel>
<triggerSensitivity>3.20V</triggerSensitivity>
<attenuation>x1</attenuation>
<voltageDiv>10V</voltageDiv>
<timeDiv>200us</timeDiv>
<sampleDiv>200us</sampleDiv>
<firmware>V3.62</firmware>
<fileNumber>S005</fileNumber>
<triggerIndex>1513</triggerIndex>
<sampleCount>4098</sampleCount>
<timeRange>32.78e-3</timeRange>
</Profile>
0 -13.26 
1 -11.28 
2 -11.12 
3 -10.98 
4 -10.94 
5 -10.89 
6 -10.80 
7 12.88 
8 12.16 
9 11.93 
10 11.73 
11 11.59 
12 11.50 
13 11.41 
14 -11.57 
15 -11.23 
16 -11.12 
17 -11.00 
18 -10.91 
19 -10.85 
20 -10.85 
21 12.47 
22 12.09 
23 11.89 
24 11.75 
25 11.59 
26 11.48 
27 11.41 
28 -11.41 
29 -11.19 
30 -11.05 
31 -11.00 
32 -10.89 
33 -10.91 
34 -10.85 
35 12.47 
36 12.09 
37 11.93 
38 11.73 
39 11.64 
40 11.52 
41 11.46 
42 -11.52 
43 -11.25 
44 -11.16 
45 -11.03 
46 -10.98 
47 -10.94 
48 -0.994 
49 12.25 
50 12.04 
51 11.80 
52 11.68 
53 11.57 
54 11.46 
55 -14.12 
56 -11.39 
57 -11.25 
58 -11.07 
59 -11.05 
60 -10.98 
61 -10.91 
62 12.99 
63 12.16 
64 11.91 
65 11.71 
66 11.59 
67 11.52 
68 11.39 
69 -11.50 
70 -11.23 
71 -11.09 
72 -11.00 
73 -10.94 
74 -10.87 
75 -10.85 
76 12.45 
77 12.07 
78 11.84 
79 11.73 
80 11.57 
81 11.43 
82 11.39 
83 11.34 
84 11.30 
85 11.23 
86 11.21 
87 11.21 
88 -12.25 
89 -11.82 
90 -11.66 
91 -11.43 
92 -11.30 
93 -11.16 
94 -11.14 
95 -11.05 
96 -10.98 
97 -10.94 
98 -10.94 
99 -10.91 
100 12.56 
101 12.16 
102 11.93 
103 11.77 
104 11.61 
105 11.55 
106 11.43 
107 -11.57 
108 -11.25 
109 -11.14 
110 -11.05 
111 -11.00 
112 -10.94 
113 -1.017 
114 12.32 
115 12.04 
116 11.86 
117 11.68 
118 11.61 
119 11.52 
120 -5.740 
121 -11.50 
122 -11.28 
123 -11.12 
124 -11.03 
125 -10.98 
126 -10.94 
127 12.99 
128 12.16 
129 11.93 
130 11.80 
131 11.66 
132 11.50 
133 11.41 
134 -11.43 
135 -11.16 
136 -11.00 
137 -11.00 
138 -10.91 
139 -10.80 
140 -10.78 
141 12.52 
142 12.13 
143 11.89 
144 11.73 
145 11.59 
146 11.48 
147 11.39 
148 -11.41 
149 -11.16 
150 -11.03 
151 -10.94 
152 -10.87 
153 -10.85 
154 -10.80 
155 12.45 
156 12.07 
157 11.89 
158 11.68 
159 11.55 
160 11.50 
161 11.41 
162 -11.55 
163 -11.28 
164 -11.19 
165 -11.07 
166 -10.98 
167 -10.94 
168 -1.198 
169 12.22 
170 12.02 
171 11.82 
172 11.66 
173 11.59 
174 11.48 
175 -14.85 
176 -11.32 
177 -11.23 
178 -11.05 
179 -11.03 
180 -10.96 
181 -10.94 
182 13.02 
183 12.20 
184 11.98 
185 11.80 
186 11.68 
187 11.52 
188 11.46 
189 -11.50 
190 -11.28 
191 -11.09 
192 -11.03 
193 -10.96 
194 -10.89 
195 -10.82 
196 12.52 
197 12.11 
198 11.86 
199 11.73 
200 11.59 
201 11.48 
202 11.37 
203 -11.43 
204 -11.21 
205 -11.05 
206 -10.96 
207 -10.91 
208 -10.85 
209 -10.78 
210 12.41 
211 12.02 
212 11.84 
213 11.66 
214 11.50 
215 11.46 
216 11.39 
217 11.32 
218 11.23 
219 11.25 
220 11.21 
221 11.21 
222 -12.16 
223 -11.77 
224 -11.55 
225 -11.37 
226 -11.25 
227 -11.19 
228 -11.09 
229 -10.98 
230 -10.96 
231 -10.94 
232 -10.91 
233 -1.243 
234 12.34 
235 12.09 
236 11.89 
237 11.75 
238 11.64 
239 11.52 
240 11.46 
241 11.39 
242 11.34 
243 11.34 
244 11.25 
245 -7.163 
246 -12.13 
247 -11.82 
248 -11.59 
249 -11.48 
250 -11.32 
251 -11.23 
252 -11.12 
253 -11.05 
254 -11.00 
255 -10.96 
256 -10.89 
257 13.13 
258 12.29 
259 12.04 
260 11.86 
261 11.66 
262 11.59 
263 11.50 
264 11.41 
265 11.32 
266 11.32 
267 11.28 
268 11.23 
269 -12.43 
270 -11.98 
271 -11.73 
272 -11.48 
273 -11.37 
274 -11.28 
275 -11.12 
276 -11.00 
277 -10.98 
278 -10.96 
279 -10.87 
280 -10.82 
281 12.56 
282 12.18 
283 11.93 
284 11.75 
285 11.66 
286 11.52 
287 11.43 
288 11.34 
289 11.34 
290 11.30 
291 11.23 
292 11.23 
293 -12.41 
294 -11.89 
295 -11.66 
296 -11.50 
297 -11.37 
298 -11.25 
299 -11.12 
300 -11.12 
301 -11.03 
302 -10.98 
303 -10.91 
304 -10.94 
305 12.59 
306 12.18 
307 11.95 
308 11.82 
309 11.66 
310 11.57 
311 11.50 
312 11.43 
313 11.37 
314 11.32 
315 11.32 
316 11.28 
317 -12.29 
318 -11.91 
319 -11.68 
320 -11.50 
321 -11.41 
322 -11.25 
323 -11.16 
324 -11.09 
325 -11.05 
326 -11.00 
327 -10.94 
328 -1.582 
329 12.34 
330 12.09 
331 11.86 
332 11.77 
333 11.61 
334 11.50 
335 11.41 
336 11.41 
337 11.34 
338 11.25 
339 11.23 
340 -7.367 
341 -12.04 
342 -11.68 
343 -11.52 
344 -11.37 
345 -11.21 
346 -11.09 
347 -11.07 
348 -11.00 
349 -10.89 
350 -10.87 
351 -10.89 
352 13.17 
353 12.27 
354 12.02 
355 11.84 
356 11.68 
357 11.57 
358 11.48 
359 11.43 
360 11.34 
361 11.30 
362 11.28 
363 11.30 
364 -12.54 
365 -11.98 
366 -11.73 
367 -11.55 
368 -11.41 
369 -11.28 
370 -11.21 
371 -11.07 
372 -11.07 
373 -10.98 
374 -10.96 
375 -10.91 
376 12.70 
377 12.20 
378 12.04 
379 11.86 
380 11.73 
381 11.57 
382 11.50 
383 11.48 
384 11.41 
385 11.34 
386 11.30 
387 11.32 
388 -12.41 
389 -11.95 
390 -11.73 
391 -11.57 
392 -11.37 
393 -11.28 
394 -11.19 
395 -11.12 
396 -11.03 
397 -10.96 
398 -10.98 
399 -10.91 
400 12.61 
401 12.16 
402 11.95 
403 11.77 
404 11.64 
405 11.52 
406 11.48 
407 11.37 
408 11.30 
409 11.28 
410 11.30 
411 11.23 
412 -12.18 
413 -11.82 
414 -11.61 
415 -11.41 
416 -11.28 
417 -11.21 
418 -11.09 
419 -11.00 
420 -10.96 
421 -10.94 
422 -10.87 
423 -2.192 
424 12.27 
425 12.07 
426 11.86 
427 11.73 
428 11.55 
429 11.50 
430 11.41 
431 11.39 
432 11.30 
433 11.28 
434 11.25 
435 -12.77 
436 -12.09 
437 -11.82 
438 -11.61 
439 -11.41 
440 -11.32 
441 -11.21 
442 -11.14 
443 -11.03 
444 -11.03 
445 -10.98 
446 -10.96 
447 13.15 
448 12.34 
449 12.04 
450 11.86 
451 11.73 
452 11.61 
453 11.55 
454 -11.55 
455 -11.43 
456 -11.28 
457 -11.19 
458 -11.07 
459 -11.05 
460 -10.98 
461 12.65 
462 12.18 
463 11.91 
464 11.80 
465 11.66 
466 11.55 
467 11.41 
468 -11.61 
469 -11.25 
470 -11.12 
471 -11.00 
472 -10.98 
473 -10.89 
474 -10.82 
475 12.47 
476 12.09 
477 11.89 
478 11.68 
479 11.57 
480 11.48 
481 11.39 
482 -11.30 
483 -11.09 
484 -11.05 
485 -10.91 
486 -10.82 
487 -10.82 
488 -2.056 
489 12.20 
490 12.00 
491 11.84 
492 11.66 
493 11.52 
494 11.43 
495 -15.64 
496 -11.32 
497 -11.19 
498 -11.05 
499 -10.98 
500 -10.87 
501 -10.87 
502 12.95 
503 12.22 
504 11.98 
505 11.75 
506 11.64 
507 11.55 
508 11.48 
509 -11.41 
510 -11.28 
511 -11.09 
512 -11.05 
513 -10.94 
514 -10.94 
515 -10.89 
516 12.61 
517 12.18 
518 11.95 
519 11.77 
520 11.66 
521 11.55 
522 11.46 
523 -11.64 
524 -11.25 
525 -11.12 
526 -11.03 
527 -11.00 
528 -10.91 
529 -10.89 
530 12.47 
531 12.11 
532 11.86 
533 11.68 
534 11.61 
535 11.50 
536 11.41 
537 -11.50 
538 -11.25 
539 -11.14 
540 -11.05 
541 -10.91 
542 -10.91 
543 -1.876 
544 12.16 
545 11.93 
546 11.80 
547 11.64 
548 11.48 
549 11.39 
550 -16.25 
551 -11.23 
552 -11.09 
553 -11.00 
554 -10.94 
555 -10.85 
556 -10.80 
557 12.97 
558 12.18 
559 11.91 
560 11.75 
561 11.57 
562 11.50 
563 11.41 
564 -11.37 
565 -11.21 
566 -11.07 
567 -10.98 
568 -10.87 
569 -10.89 
570 -10.85 
571 12.61 
572 12.13 
573 11.93 
574 11.73 
575 11.64 
576 11.52 
577 11.48 
578 -11.68 
579 -11.30 
580 -11.16 
581 -11.05 
582 -11.03 
583 -10.91 
584 -10.91 
585 12.45 
586 12.09 
587 11.86 
588 11.73 
589 11.61 
590 11.52 
591 11.41 
592 -11.52 
593 -11.32 
594 -11.16 
595 -11.07 
596 -11.00 
597 -10.96 
598 -2.666 
599 12.29 
600 11.98 
601 11.84 
602 11.66 
603 11.55 
604 11.43 
605 -15.91 
606 -11.25 
607 -11.07 
608 -11.00 
609 -10.98 
610 -10.89 
611 -10.80 
612 12.97 
613 12.20 
614 11.93 
615 11.75 
616 11.64 
617 11.50 
618 11.39 
619 -11.30 
620 -11.19 
621 -11.07 
622 -10.94 
623 -10.87 
624 -10.85 
625 -10.80 
626 12.56 
627 12.11 
628 11.93 
629 11.71 
630 11.57 
631 11.48 
632 11.43 
633 -11.50 
634 -11.23 
635 -11.12 
636 -11.00 
637 -10.91 
638 -10.87 
639 -10.87 
640 12.45 
641 12.09 
642 11.84 
643 11.73 
644 11.59 
645 11.52 
646 11.43 
647 -11.46 
648 -11.19 
649 -11.07 
650 -10.98 
651 -10.94 
652 -10.94 
653 -2.056 
654 12.29 
655 12.04 
656 11.86 
657 11.71 
658 11.61 
659 11.48 
660 -16.61 
661 -11.30 
662 -11.16 
663 -11.09 
664 -11.03 
665 -10.96 
666 -10.85 
667 13.04 
668 12.20 
669 11.98 
670 11.77 
671 11.66 
672 11.52 
673 11.39 
674 -11.46 
675 -11.28 
676 -11.14 
677 -11.00 
678 -10.94 
679 -10.89 
680 -10.85 
681 12.54 
682 12.07 
683 11.89 
684 11.68 
685 11.52 
686 11.43 
687 11.39 
688 -11.52 
689 -11.21 
690 -11.12 
691 -11.00 
692 -10.89 
693 -10.85 
694 -10.87 
695 12.38 
696 12.02 
697 11.82 
698 11.68 
699 11.55 
700 11.46 
701 11.39 
702 -11.41 
703 -11.14 
704 -11.03 
705 -10.96 
706 -10.91 
707 -10.89 
708 -2.260 
709 12.32 
710 12.02 
711 11.84 
712 11.68 
713 11.59 
714 11.50 
715 -16.65 
716 -11.34 
717 -11.23 
718 -11.12 
719 -11.05 
720 -10.98 
721 -10.91 
722 13.06 
723 12.22 
724 11.98 
725 11.77 
726 11.68 
727 11.57 
728 11.48 
729 -11.64 
730 -11.32 
731 -11.14 
732 -11.05 
733 -10.98 
734 -10.94 
735 -10.87 
736 12.63 
737 12.11 
738 11.91 
739 11.77 
740 11.59 
741 11.48 
742 11.41 
743 -11.43 
744 -11.12 
745 -11.07 
746 -10.96 
747 -10.85 
748 -10.78 
749 -10.80 
750 12.38 
751 12.04 
752 11.84 
753 11.68 
754 11.52 
755 11.43 
756 11.39 
757 -11.37 
758 -11.09 
759 -10.98 
760 -10.91 
761 -10.87 
762 -10.82 
763 -2.892 
764 12.29 
765 12.02 
766 11.82 
767 11.64 
768 11.55 
769 11.46 
770 -16.99 
771 -11.30 
772 -11.21 
773 -11.07 
774 -10.98 
775 -10.96 
776 -10.91 
777 12.97 
778 12.20 
779 11.98 
780 11.77 
781 11.68 
782 11.55 
783 11.48 
784 -11.68 
785 -11.30 
786 -11.12 
787 -11.05 
788 -11.00 
789 -10.96 
790 -10.87 
791 12.72 
792 12.18 
793 11.93 
794 11.80 
795 11.64 
796 11.52 
797 11.43 
798 11.39 
799 11.32 
800 11.32 
801 11.23 
802 11.19 
803 -12.22 
804 -11.89 
805 -11.66 
806 -11.46 
807 -11.30 
808 -11.21 
809 -11.14 
810 -11.00 
811 -10.98 
812 -10.91 
813 -10.87 
814 -10.82 
815 12.47 
816 12.11 
817 11.86 
818 11.68 
819 11.59 
820 11.50 
821 11.41 
822 -11.59 
823 -11.32 
824 -11.14 
825 -11.03 
826 -10.96 
827 -10.96 
828 -3.322 
829 12.27 
830 12.00 
831 11.80 
832 11.66 
833 11.52 
834 11.48 
835 -17.11 
836 -11.32 
837 -11.21 
838 -11.12 
839 -11.03 
840 -10.98 
841 -10.91 
842 13.04 
843 12.20 
844 11.95 
845 11.80 
846 11.71 
847 11.57 
848 11.46 
849 -11.61 
850 -11.25 
851 -11.14 
852 -11.05 
853 -11.00 
854 -10.91 
855 -10.89 
856 12.72 
857 12.18 
858 11.93 
859 11.82 
860 11.64 
861 11.50 
862 11.43 
863 -11.48 
864 -11.21 
865 -11.09 
866 -11.00 
867 -10.91 
868 -10.87 
869 -10.82 
870 12.43 
871 12.07 
872 11.86 
873 11.66 
874 11.57 
875 11.48 
876 11.39 
877 -11.50 
878 -11.25 
879 -11.09 
880 -10.96 
881 -10.91 
882 -10.91 
883 -3.028 
884 12.22 
885 11.98 
886 11.80 
887 11.59 
888 11.50 
889 11.41 
890 -16.88 
891 -11.21 
892 -11.09 
893 -11.00 
894 -10.91 
895 -10.87 
896 -10.82 
897 12.97 
898 12.18 
899 11.93 
900 11.75 
901 11.66 
902 11.55 
903 11.46 
904 -11.64 
905 -11.23 
906 -11.07 
907 -10.98 
908 -10.98 
909 -10.89 
910 -10.87 
911 12.72 
912 12.20 
913 11.93 
914 11.82 
915 11.66 
916 11.57 
917 11.46 
918 -11.52 
919 -11.25 
920 -11.14 
921 -11.09 
922 -10.98 
923 -10.91 
924 -10.87 
925 12.43 
926 12.09 
927 11.91 
928 11.71 
929 11.59 
930 11.48 
931 11.39 
932 11.34 
933 11.30 
934 11.25 
935 11.19 
936 11.19 
937 -12.25 
938 -11.82 
939 -11.57 
940 -11.41 
941 -11.28 
942 -11.16 
943 -11.05 
944 -11.00 
945 -10.94 
946 -10.87 
947 -10.85 
948 -4.293 
949 12.36 
950 12.00 
951 11.80 
952 11.71 
953 11.55 
954 11.48 
955 11.37 
956 11.34 
957 11.28 
958 11.25 
959 11.21 
960 -17.92 
961 -11.95 
962 -11.71 
963 -11.57 
964 -11.41 
965 -11.28 
966 -11.12 
967 -11.12 
968 -11.03 
969 -11.00 
970 -10.91 
971 -10.91 
972 13.24 
973 12.29 
974 12.04 
975 11.91 
976 11.73 
977 11.61 
978 11.55 
979 11.46 
980 11.41 
981 11.32 
982 11.32 
983 11.30 
984 -13.04 
985 -12.07 
986 -11.80 
987 -11.59 
988 -11.43 
989 -11.32 
990 -11.21 
991 -11.12 
992 -11.05 
993 -11.00 
994 -10.94 
995 -10.94 
996 12.81 
997 12.25 
998 11.98 
999 11.84 
1000 11.71 
1001 11.57 
1002 11.46 
1003 11.43 
1004 11.37 
1005 11.30 
1006 11.25 
1007 11.25 
1008 -12.25 
1009 -11.89 
1010 -11.68 
1011 -11.50 
1012 -11.30 
1013 -11.19 
1014 -11.12 
1015 -11.07 
1016 -10.94 
1017 -10.89 
1018 -10.89 
1019 -10.89 
1020 12.45 
1021 12.13 
1022 11.93 
1023 11.73 
1024 11.59 
1025 11.50 
1026 11.48 
1027 11.34 
1028 11.30 
1029 11.28 
1030 11.30 
1031 11.25 
1032 -12.25 
1033 -11.84 
1034 -11.57 
1035 -11.41 
1036 -11.28 
1037 -11.21 
1038 -11.09 
1039 -11.05 
1040 -10.98 
1041 -11.00 
1042 -10.91 
1043 -4.926 
1044 12.43 
1045 12.13 
1046 11.93 
1047 11.75 
1048 11.66 
1049 11.52 
1050 11.48 
1051 11.41 
1052 11.39 
1053 11.32 
1054 11.30 
1055 -13.65 
1056 -12.11 
1057 -11.89 
1058 -11.68 
1059 -11.48 
1060 -11.32 
1061 -11.25 
1062 -11.19 
1063 -11.09 
1064 -11.00 
1065 -11.03 
1066 -10.96 
1067 13.87 
1068 12.29 
1069 12.09 
1070 11.86 
1071 11.71 
1072 11.59 
1073 11.52 
1074 11.46 
1075 11.32 
1076 11.32 
1077 11.30 
1078 11.28 
1079 -12.97 
1080 -12.00 
1081 -11.73 
1082 -11.48 
1083 -11.34 
1084 -11.28 
1085 -11.16 
1086 -11.03 
1087 -10.96 
1088 -10.98 
1089 -10.91 
1090 -10.85 
1091 12.68 
1092 12.20 
1093 11.95 
1094 11.80 
1095 11.66 
1096 11.57 
1097 11.43 
1098 11.41 
1099 11.34 
1100 11.32 
1101 11.25 
1102 11.23 
1103 -12.25 
1104 -11.91 
1105 -11.68 
1106 -11.46 
1107 -11.37 
1108 -11.23 
1109 -11.16 
1110 -11.07 
1111 -11.03 
1112 -10.96 
1113 -10.96 
1114 -10.91 
1115 12.59 
1116 12.20 
1117 11.95 
1118 11.80 
1119 11.68 
1120 11.61 
1121 11.48 
1122 11.43 
1123 11.39 
1124 11.39 
1125 11.32 
1126 11.30 
1127 -12.36 
1128 -11.93 
1129 -11.66 
1130 -11.50 
1131 -11.41 
1132 -11.28 
1133 -11.16 
1134 -11.07 
1135 -11.07 
1136 -10.98 
1137 -10.96 
1138 -7.254 
1139 12.45 
1140 12.09 
1141 11.89 
1142 11.75 
1143 11.61 
1144 11.50 
1145 11.41 
1146 11.39 
1147 11.34 
1148 11.30 
1149 11.23 
1150 -16.83 
1151 -12.00 
1152 -11.77 
1153 -11.55 
1154 -11.41 
1155 -11.28 
1156 -11.16 
1157 -11.07 
1158 -11.03 
1159 -10.96 
1160 -10.91 
1161 -10.87 
1162 13.67 
1163 12.25 
1164 12.00 
1165 11.80 
1166 11.68 
1167 11.55 
1168 11.50 
1169 -11.95 
1170 -11.48 
1171 -11.25 
1172 -11.12 
1173 -11.09 
1174 -11.00 
1175 -10.96 
1176 12.59 
1177 12.13 
1178 11.91 
1179 11.77 
1180 11.64 
1181 11.55 
1182 11.43 
1183 -11.52 
1184 -11.32 
1185 -11.21 
1186 -11.14 
1187 -11.03 
1188 -10.98 
1189 -10.91 
1190 12.52 
1191 12.07 
1192 11.93 
1193 11.75 
1194 11.66 
1195 11.50 
1196 11.46 
1197 -11.50 
1198 -11.23 
1199 -11.09 
1200 -11.00 
1201 -10.96 
1202 -10.91 
1203 -8.971 
1204 12.36 
1205 12.07 
1206 11.89 
1207 11.71 
1208 11.55 
1209 11.50 
1210 -14.12 
1211 -11.32 
1212 -11.23 
1213 -11.12 
1214 -11.00 
1215 -10.89 
1216 -10.89 
1217 13.58 
1218 12.18 
1219 11.93 
1220 11.75 
1221 11.61 
1222 11.50 
1223 11.41 
1224 -11.77 
1225 -11.34 
1226 -11.12 
1227 -10.98 
1228 -10.94 
1229 -10.91 
1230 -10.82 
1231 12.50 
1232 12.13 
1233 11.86 
1234 11.71 
1235 11.57 
1236 11.52 
1237 11.39 
1238 -11.43 
1239 -11.19 
1240 -11.07 
1241 -10.98 
1242 -10.91 
1243 -10.87 
1244 -10.85 
1245 12.47 
1246 12.04 
1247 11.89 
1248 11.73 
1249 11.64 
1250 11.50 
1251 11.46 
1252 -11.52 
1253 -11.23 
1254 -11.09 
1255 -11.05 
1256 -10.98 
1257 -10.89 
1258 -6.350 
1259 12.36 
1260 12.04 
1261 11.86 
1262 11.71 
1263 11.57 
1264 11.50 
1265 -10.78 
1266 -11.41 
1267 -11.25 
1268 -11.19 
1269 -11.03 
1270 -10.94 
1271 -10.89 
1272 13.42 
1273 12.18 
1274 11.93 
1275 11.80 
1276 11.64 
1277 11.52 
1278 11.41 
1279 -11.66 
1280 -11.25 
1281 -11.09 
1282 -10.98 
1283 -10.94 
1284 -10.87 
1285 -10.80 
1286 12.47 
1287 12.13 
1288 11.91 
1289 11.66 
1290 11.57 
1291 11.52 
1292 11.41 
1293 -11.50 
1294 -11.23 
1295 -11.09 
1296 -10.96 
1297 -10.91 
1298 -10.89 
1299 -10.82 
1300 12.45 
1301 12.02 
1302 11.84 
1303 11.68 
1304 11.59 
1305 11.46 
1306 11.41 
1307 -11.55 
1308 -11.23 
1309 -11.07 
1310 -11.03 
1311 -10.96 
1312 -10.89 
1313 -8.835 
1314 12.36 
1315 12.02 
1316 11.82 
1317 11.71 
1318 11.57 
1319 11.48 
1320 -7.344 
1321 -11.37 
1322 -11.16 
1323 -11.09 
1324 -11.00 
1325 -10.96 
1326 -10.89 
1327 13.42 
1328 12.20 
1329 11.98 
1330 11.84 
1331 11.68 
1332 11.57 
1333 11.46 
1334 -11.64 
1335 -11.28 
1336 -11.16 
1337 -11.03 
1338 -10.98 
1339 -10.89 
1340 -10.87 
1341 12.52 
1342 12.16 
1343 11.93 
1344 11.71 
1345 11.57 
1346 11.52 
1347 11.43 
1348 -11.50 
1349 -11.28 
1350 -11.14 
1351 -11.00 
1352 -10.91 
1353 -10.91 
1354 -10.85 
1355 12.43 
1356 12.00 
1357 11.82 
1358 11.66 
1359 11.52 
1360 11.43 
1361 11.37 
1362 -11.50 
1363 -11.19 
1364 -11.05 
1365 -10.98 
1366 -10.91 
1367 -10.85 
1368 -9.197 
1369 12.34 
1370 11.98 
1371 11.80 
1372 11.66 
1373 11.55 
1374 11.46 
1375 -12.97 
1376 -11.25 
1377 -11.12 
1378 -11.03 
1379 -10.94 
1380 -10.91 
1381 -10.87 
1382 13.69 
1383 12.20 
1384 12.00 
1385 11.82 
1386 11.71 
1387 11.55 
1388 11.46 
1389 -11.61 
1390 -11.32 
1391 -11.23 
1392 -11.09 
1393 -11.05 
1394 -10.96 
1395 -10.94 
1396 12.54 
1397 12.18 
1398 11.93 
1399 11.75 
1400 11.61 
1401 11.50 
1402 11.43 
1403 -11.57 
1404 -11.32 
1405 -11.19 
1406 -11.07 
1407 -10.96 
1408 -10.96 
1409 -10.89 
1410 12.45 
1411 12.02 
1412 11.84 
1413 11.66 
1414 11.50 
1415 11.43 
1416 11.39 
1417 -11.48 
1418 -11.14 
1419 -11.03 
1420 -10.96 
1421 -10.87 
1422 -10.82 
1423 -9.287 
1424 12.34 
1425 11.95 
1426 11.75 
1427 11.64 
1428 11.55 
1429 11.43 
1430 0.407 
1431 -11.25 
1432 -11.12 
1433 -11.03 
1434 -10.91 
1435 -10.91 
1436 -10.85 
1437 13.85 
1438 12.18 
1439 11.95 
1440 11.77 
1441 11.64 
1442 11.55 
1443 11.43 
1444 -11.50 
1445 -11.30 
1446 -11.19 
1447 -11.09 
1448 -11.03 
1449 -10.94 
1450 -10.91 
1451 12.54 
1452 12.16 
1453 11.93 
1454 11.77 
1455 11.64 
1456 11.52 
1457 11.43 
1458 -11.59 
1459 -11.37 
1460 -11.23 
1461 -11.14 
1462 -11.00 
1463 -10.98 
1464 -10.91 
1465 12.47 
1466 12.04 
1467 11.89 
1468 11.71 
1469 11.52 
1470 11.46 
1471 11.41 
1472 -11.41 
1473 -11.19 
1474 -11.07 
1475 -10.98 
1476 -10.91 
1477 -10.85 
1478 -9.875 
1479 12.34 
1480 12.00 
1481 11.77 
1482 11.64 
1483 11.55 
1484 11.41 
1485 -6.079 
1486 -11.39 
1487 -11.14 
1488 -10.98 
1489 -10.94 
1490 -10.89 
1491 -10.82 
1492 13.74 
1493 12.18 
1494 11.95 
1495 11.73 
1496 11.61 
1497 11.50 
1498 11.46 
1499 -11.43 
1500 -11.23 
1501 -11.12 
1502 -11.00 
1503 -10.96 
1504 -10.87 
1505 -10.87 
1506 12.54 
1507 12.13 
1508 11.91 
1509 11.77 
1510 11.64 
1511 11.55 
1512 11.43 
1513 11.39 
1514 11.37 
1515 11.30 
1516 11.25 
1517 11.23 
1518 -12.41 
1519 -11.91 
1520 -11.73 
1521 -11.52 
1522 -11.39 
1523 -11.23 
1524 -11.21 
1525 -11.09 
1526 -11.05 
1527 -10.96 
1528 -10.94 
1529 -10.96 
1530 12.61 
1531 12.16 
1532 11.91 
1533 11.75 
1534 11.61 
1535 11.55 
1536 11.43 
1537 -11.55 
1538 -11.30 
1539 -11.14 
1540 -11.03 
1541 -11.03 
1542 -10.96 
1543 -10.85 
1544 12.32 
1545 12.00 
1546 11.80 
1547 11.61 
1548 11.55 
1549 11.46 
1550 4.542 
1551 -11.43 
1552 -11.25 
1553 -11.12 
1554 -11.00 
1555 -10.94 
1556 -10.91 
1557 13.74 
1558 12.11 
1559 11.86 
1560 11.73 
1561 11.57 
1562 11.48 
1563 11.37 
1564 -11.59 
1565 -11.28 
1566 -11.16 
1567 -11.07 
1568 -11.00 
1569 -10.91 
1570 -10.89 
1571 12.50 
1572 12.09 
1573 11.89 
1574 11.73 
1575 11.61 
1576 11.48 
1577 11.41 
1578 -11.59 
1579 -11.25 
1580 -11.14 
1581 -11.05 
1582 -10.94 
1583 -10.94 
1584 -10.89 
1585 12.54 
1586 12.11 
1587 11.89 
1588 11.75 
1589 11.59 
1590 11.50 
1591 11.43 
1592 -11.59 
1593 -11.32 
1594 -11.23 
1595 -11.12 
1596 -11.03 
1597 -10.96 
1598 -10.96 
1599 12.34 
1600 12.02 
1601 11.82 
1602 11.64 
1603 11.57 
1604 11.48 
1605 4.836 
1606 -11.37 
1607 -11.21 
1608 -11.05 
1609 -10.94 
1610 -10.89 
1611 -10.89 
1612 13.96 
1613 12.18 
1614 11.95 
1615 11.75 
1616 11.64 
1617 11.46 
1618 11.41 
1619 -11.37 
1620 -11.14 
1621 -11.00 
1622 -10.94 
1623 -10.91 
1624 -10.80 
1625 -10.78 
1626 12.52 
1627 12.11 
1628 11.89 
1629 11.71 
1630 11.59 
1631 11.48 
1632 11.39 
1633 -11.59 
1634 -11.23 
1635 -11.05 
1636 -10.98 
1637 -10.91 
1638 -10.87 
1639 -10.85 
1640 12.45 
1641 12.04 
1642 11.91 
1643 11.73 
1644 11.57 
1645 11.48 
1646 11.43 
1647 11.28 
1648 11.32 
1649 11.30 
1650 11.25 
1651 11.28 
1652 -12.18 
1653 -11.86 
1654 -11.61 
1655 -11.46 
1656 -11.32 
1657 -11.23 
1658 -11.16 
1659 -11.03 
1660 -11.00 
1661 -10.94 
1662 -10.94 
1663 -10.91 
1664 12.50 
1665 12.09 
1666 11.93 
1667 11.75 
1668 11.61 
1669 11.52 
1670 11.46 
1671 11.37 
1672 11.30 
1673 11.30 
1674 11.25 
1675 5.581 
1676 -12.09 
1677 -11.82 
1678 -11.59 
1679 -11.39 
1680 -11.28 
1681 -11.23 
1682 -11.07 
1683 -11.00 
1684 -10.94 
1685 -10.91 
1686 -10.85 
1687 14.30 
1688 12.22 
1689 12.00 
1690 11.80 
1691 11.66 
1692 11.52 
1693 11.48 
1694 11.39 
1695 11.32 
1696 11.28 
1697 11.25 
1698 11.23 
1699 -13.56 
1700 -11.98 
1701 -11.73 
1702 -11.50 
1703 -11.34 
1704 -11.28 
1705 -11.14 
1706 -11.07 
1707 -11.00 
1708 -10.98 
1709 -10.96 
1710 -10.91 
1711 12.72 
1712 12.25 
1713 12.00 
1714 11.82 
1715 11.71 
1716 11.59 
1717 11.52 
1718 11.41 
1719 11.39 
1720 11.34 
1721 11.30 
1722 11.28 
1723 -12.43 
1724 -11.98 
1725 -11.75 
1726 -11.57 
1727 -11.39 
1728 -11.32 
1729 -11.19 
1730 -11.14 
1731 -11.03 
1732 -11.03 
1733 -10.94 
1734 -10.98 
1735 12.56 
1736 12.20 
1737 11.93 
1738 11.77 
1739 11.66 
1740 11.57 
1741 11.50 
1742 11.37 
1743 11.34 
1744 11.30 
1745 11.28 
1746 11.23 
1747 -12.25 
1748 -12.02 
1749 -11.61 
1750 -11.41 
1751 -11.34 
1752 -11.21 
1753 -11.09 
1754 -10.98 
1755 -10.98 
1756 -10.94 
1757 -10.89 
1758 -10.91 
1759 12.45 
1760 12.04 
1761 11.84 
1762 11.73 
1763 11.61 
1764 11.46 
1765 11.37 
1766 11.37 
1767 11.32 
1768 11.28 
1769 11.19 
1770 5.853 
1771 -12.11 
1772 -11.77 
1773 -11.57 
1774 -11.43 
1775 -11.25 
1776 -11.19 
1777 -11.12 
1778 -11.05 
1779 -10.98 
1780 -10.96 
1781 -10.94 
1782 14.42 
1783 12.32 
1784 12.04 
1785 11.89 
1786 11.73 
1787 11.61 
1788 11.52 
1789 11.48 
1790 11.39 
1791 11.37 
1792 11.30 
1793 11.25 
1794 -13.74 
1795 -12.07 
1796 -11.77 
1797 -11.59 
1798 -11.48 
1799 -11.32 
1800 -11.25 
1801 -11.12 
1802 -11.09 
1803 -11.05 
1804 -10.98 
1805 -10.94 
1806 12.81 
1807 12.22 
1808 12.00 
1809 11.82 
1810 11.73 
1811 11.59 
1812 11.46 
1813 11.41 
1814 11.37 
1815 11.34 
1816 11.23 
1817 11.23 
1818 -12.36 
1819 -11.93 
1820 -11.68 
1821 -11.55 
1822 -11.37 
1823 -11.21 
1824 -11.14 
1825 -11.12 
1826 -11.00 
1827 -10.91 
1828 -10.89 
1829 -10.91 
1830 12.50 
1831 12.13 
1832 11.91 
1833 11.73 
1834 11.59 
1835 11.50 
1836 11.46 
1837 11.39 
1838 11.30 
1839 11.25 
1840 11.28 
1841 11.21 
1842 -12.27 
1843 -11.82 
1844 -11.64 
1845 -11.43 
1846 -11.32 
1847 -11.21 
1848 -11.12 
1849 -11.03 
1850 -11.00 
1851 -10.96 
1852 -10.94 
1853 -10.94 
1854 12.47 
1855 12.11 
1856 11.91 
1857 11.80 
1858 11.61 
1859 11.57 
1860 11.46 
1861 11.43 
1862 11.37 
1863 11.30 
1864 11.32 
1865 5.762 
1866 -12.16 
1867 -11.86 
1868 -11.66 
1869 -11.48 
1870 -11.37 
1871 -11.23 
1872 -11.19 
1873 -11.07 
1874 -11.03 
1875 -10.96 
1876 -10.98 
1877 14.46 
1878 12.32 
1879 12.07 
1880 11.89 
1881 11.73 
1882 11.59 
1883 11.52 
1884 -11.77 
1885 -11.43 
1886 -11.25 
1887 -11.12 
1888 -11.03 
1889 -10.98 
1890 -10.89 
1891 12.74 
1892 12.18 
1893 11.84 
1894 11.71 
1895 11.64 
1896 11.52 
1897 11.39 
1898 -11.57 
1899 -11.25 
1900 -11.07 
1901 -10.98 
1902 -10.94 
1903 -10.89 
1904 -10.78 
1905 12.41 
1906 12.07 
1907 11.89 
1908 11.71 
1909 11.57 
1910 11.48 
1911 11.41 
1912 -11.34 
1913 -11.09 
1914 -11.05 
1915 -10.94 
1916 -10.87 
1917 -10.82 
1918 -10.89 
1919 12.41 
1920 12.04 
1921 11.86 
1922 11.73 
1923 11.57 
1924 11.48 
1925 6.101 
1926 -11.41 
1927 -11.25 
1928 -11.12 
1929 -11.05 
1930 -10.98 
1931 -11.09 
1932 14.24 
1933 12.25 
1934 12.02 
1935 11.84 
1936 11.66 
1937 11.55 
1938 11.48 
1939 -11.91 
1940 -11.41 
1941 -11.21 
1942 -11.12 
1943 -10.98 
1944 -10.96 
1945 -10.91 
1946 12.70 
1947 12.13 
1948 11.91 
1949 11.71 
1950 11.64 
1951 11.50 
1952 11.41 
1953 -11.55 
1954 -11.25 
1955 -11.07 
1956 -10.94 
1957 -10.96 
1958 -10.91 
1959 -10.78 
1960 12.41 
1961 12.04 
1962 11.84 
1963 11.64 
1964 11.55 
1965 11.46 
1966 11.37 
1967 -11.41 
1968 -11.14 
1969 -11.05 
1970 -10.96 
1971 -10.85 
1972 -10.82 
1973 -10.87 
1974 12.34 
1975 11.98 
1976 11.80 
1977 11.66 
1978 11.55 
1979 11.43 
1980 5.762 
1981 -11.37 
1982 -11.19 
1983 -11.07 
1984 -11.00 
1985 -10.94 
1986 -10.87 
1987 14.53 
1988 12.20 
1989 11.98 
1990 11.84 
1991 11.66 
1992 11.57 
1993 11.48 
1994 -11.61 
1995 -11.30 
1996 -11.19 
1997 -11.07 
1998 -10.98 
1999 -10.94 
2000 -10.91 
2001 12.79 
2002 12.20 
2003 11.98 
2004 11.80 
2005 11.64 
2006 11.55 
2007 11.46 
2008 -11.50 
2009 -11.32 
2010 -11.12 
2011 -10.98 
2012 -10.96 
2013 -10.94 
2014 -10.89 
2015 12.43 
2016 12.11 
2017 11.86 
2018 11.68 
2019 11.57 
2020 11.52 
2021 11.39 
2022 -11.48 
2023 -11.21 
2024 -11.09 
2025 -10.98 
2026 -10.91 
2027 -10.87 
2028 -10.85 
2029 12.36 
2030 11.93 
2031 11.77 
2032 11.64 
2033 11.50 
2034 11.39 
2035 5.988 
2036 -11.30 
2037 -11.09 
2038 -10.98 
2039 -10.96 
2040 -10.87 
2041 -10.82 
2042 14.53 
2043 12.16 
2044 11.93 
2045 11.77 
2046 11.66 
2047 11.55 
2048 11.43 
2049 -11.75 
2050 -11.23 
2051 -11.09 
2052 -11.03 
2053 -10.91 
2054 -10.89 
2055 -10.85 
2056 12.77 
2057 12.16 
2058 12.00 
2059 11.80 
2060 11.66 
2061 11.52 
2062 11.48 
2063 11.41 
2064 -11.50 
2065 -11.23 
2066 -11.09 
2067 -11.05 
2068 -10.96 
2069 -10.94 
2070 -0.926 
2071 12.32 
2072 12.04 
2073 11.82 
2074 11.66 
2075 11.61 
2076 11.48 
2077 -13.69 
2078 -11.34 
2079 -11.23 
2080 -11.09 
2081 -10.98 
2082 -10.96 
2083 -10.89 
2084 12.74 
2085 12.11 
2086 11.91 
2087 11.75 
2088 11.59 
2089 11.48 
2090 11.41 
2091 -11.77 
2092 -11.28 
2093 -11.14 
2094 -11.07 
2095 -10.96 
2096 -10.87 
2097 -10.87 
2098 12.52 
2099 12.04 
2100 11.86 
2101 11.68 
2102 11.59 
2103 11.43 
2104 11.39 
2105 -11.39 
2106 -11.16 
2107 -11.05 
2108 -10.96 
2109 -10.91 
2110 -10.85 
2111 -10.85 
2112 12.41 
2113 12.07 
2114 11.86 
2115 11.71 
2116 11.59 
2117 11.52 
2118 11.41 
2119 -11.50 
2120 -11.25 
2121 -11.12 
2122 -11.05 
2123 -10.94 
2124 -10.91 
2125 -0.926 
2126 12.29 
2127 12.04 
2128 11.84 
2129 11.66 
2130 11.59 
2131 11.50 
2132 -14.01 
2133 -11.34 
2134 -11.25 
2135 -11.09 
2136 -11.00 
2137 -10.98 
2138 -10.91 
2139 12.81 
2140 12.16 
2141 11.95 
2142 11.77 
2143 11.61 
2144 11.52 
2145 11.43 
2146 -11.57 
2147 -11.21 
2148 -11.03 
2149 -10.98 
2150 -10.91 
2151 -10.85 
2152 -10.80 
2153 12.59 
2154 12.09 
2155 11.86 
2156 11.71 
2157 11.59 
2158 11.48 
2159 11.34 
2160 -11.39 
2161 -11.19 
2162 -11.00 
2163 -10.96 
2164 -10.91 
2165 -10.85 
2166 -10.80 
2167 12.36 
2168 12.04 
2169 11.82 
2170 11.71 
2171 11.52 
2172 11.46 
2173 11.34 
2174 -11.57 
2175 -11.25 
2176 -11.19 
2177 -11.05 
2178 -10.98 
2179 -10.89 
2180 -1.107 
2181 12.20 
2182 11.98 
2183 11.82 
2184 11.66 
2185 11.57 
2186 11.46 
2187 -13.38 
2188 -11.32 
2189 -11.25 
2190 -11.09 
2191 -11.00 
2192 -10.98 
2193 -10.94 
2194 12.83 
2195 12.18 
2196 12.00 
2197 11.80 
2198 11.68 
2199 11.52 
2200 11.48 
2201 -11.59 
2202 -11.28 
2203 -11.12 
2204 -11.03 
2205 -10.96 
2206 -10.87 
2207 -10.85 
2208 12.61 
2209 12.13 
2210 11.84 
2211 11.71 
2212 11.61 
2213 11.50 
2214 11.37 
2215 -11.46 
2216 -11.21 
2217 -11.05 
2218 -10.96 
2219 -10.96 
2220 -10.87 
2221 -10.78 
2222 12.43 
2223 12.00 
2224 11.82 
2225 11.64 
2226 11.52 
2227 11.46 
2228 11.37 
2229 11.28 
2230 11.25 
2231 11.23 
2232 11.19 
2233 11.19 
2234 -12.13 
2235 -11.75 
2236 -11.52 
2237 -11.37 
2238 -11.28 
2239 -11.12 
2240 -11.09 
2241 -11.00 
2242 -10.96 
2243 -10.89 
2244 -10.89 
2245 -1.039 
2246 12.34 
2247 12.09 
2248 11.91 
2249 11.73 
2250 11.64 
2251 11.55 
2252 -14.17 
2253 -11.34 
2254 -11.19 
2255 -11.12 
2256 -11.00 
2257 -11.00 
2258 -10.91 
2259 12.99 
2260 12.27 
2261 12.04 
2262 11.82 
2263 11.71 
2264 11.59 
2265 11.48 
2266 -11.52 
2267 -11.30 
2268 -11.14 
2269 -11.00 
2270 -10.98 
2271 -10.91 
2272 -10.87 
2273 12.56 
2274 12.13 
2275 11.91 
2276 11.71 
2277 11.61 
2278 11.52 
2279 11.41 
2280 -11.46 
2281 -11.23 
2282 -11.12 
2283 -11.03 
2284 -10.91 
2285 -10.87 
2286 -10.82 
2287 12.41 
2288 12.00 
2289 11.82 
2290 11.68 
2291 11.52 
2292 11.41 
2293 11.37 
2294 -11.48 
2295 -11.16 
2296 -11.03 
2297 -11.03 
2298 -10.91 
2299 -10.82 
2300 -1.152 
2301 12.20 
2302 11.95 
2303 11.80 
2304 11.61 
2305 11.52 
2306 11.46 
2307 -13.49 
2308 -11.23 
2309 -11.14 
2310 -11.05 
2311 -10.94 
2312 -10.89 
2313 -10.89 
2314 13.13 
2315 12.22 
2316 12.00 
2317 11.80 
2318 11.66 
2319 11.55 
2320 11.50 
2321 -11.66 
2322 -11.32 
2323 -11.16 
2324 -11.03 
2325 -11.00 
2326 -10.91 
2327 -10.91 
2328 12.52 
2329 12.18 
2330 11.91 
2331 11.75 
2332 11.59 
2333 11.55 
2334 11.41 
2335 -11.64 
2336 -11.30 
2337 -11.19 
2338 -11.05 
2339 -10.98 
2340 -10.94 
2341 -10.87 
2342 12.43 
2343 11.98 
2344 11.82 
2345 11.68 
2346 11.52 
2347 11.41 
2348 11.37 
2349 -11.39 
2350 -11.07 
2351 -11.00 
2352 -10.96 
2353 -10.89 
2354 -10.78 
2355 -1.491 
2356 12.20 
2357 11.95 
2358 11.80 
2359 11.64 
2360 11.52 
2361 11.39 
2362 11.37 
2363 11.32 
2364 11.28 
2365 11.23 
2366 11.21 
2367 -7.909 
2368 -12.04 
2369 -11.73 
2370 -11.50 
2371 -11.34 
2372 -11.19 
2373 -11.16 
2374 -11.07 
2375 -11.03 
2376 -10.94 
2377 -10.94 
2378 -10.89 
2379 13.20 
2380 12.29 
2381 12.02 
2382 11.84 
2383 11.71 
2384 11.61 
2385 11.48 
2386 11.43 
2387 11.39 
2388 11.37 
2389 11.32 
2390 11.25 
2391 -12.45 
2392 -12.02 
2393 -11.75 
2394 -11.55 
2395 -11.43 
2396 -11.30 
2397 -11.19 
2398 -11.12 
2399 -11.07 
2400 -10.98 
2401 -10.96 
2402 -10.91 
2403 12.59 
2404 12.18 
2405 11.98 
2406 11.80 
2407 11.66 
2408 11.55 
2409 11.43 
2410 11.39 
2411 11.34 
2412 11.28 
2413 11.25 
2414 11.23 
2415 -12.36 
2416 -11.89 
2417 -11.61 
2418 -11.48 
2419 -11.32 
2420 -11.19 
2421 -11.09 
2422 -11.05 
2423 -10.96 
2424 -10.94 
2425 -10.89 
2426 -10.85 
2427 12.54 
2428 12.09 
2429 11.86 
2430 11.73 
2431 11.61 
2432 11.52 
2433 11.39 
2434 11.37 
2435 11.34 
2436 11.28 
2437 11.25 
2438 11.23 
2439 -12.20 
2440 -11.91 
2441 -11.64 
2442 -11.46 
2443 -11.32 
2444 -11.19 
2445 -11.14 
2446 -11.07 
2447 -11.03 
2448 -10.96 
2449 -10.98 
2450 -1.288 
2451 12.32 
2452 12.13 
2453 11.93 
2454 11.77 
2455 11.61 
2456 11.55 
2457 11.46 
2458 11.46 
2459 11.34 
2460 11.34 
2461 11.30 
2462 -9.219 
2463 -12.18 
2464 -11.82 
2465 -11.64 
2466 -11.43 
2467 -11.37 
2468 -11.23 
2469 -11.14 
2470 -11.07 
2471 -11.05 
2472 -10.96 
2473 -10.98 
2474 13.20 
2475 12.27 
2476 12.00 
2477 11.86 
2478 11.68 
2479 11.52 
2480 11.46 
2481 11.41 
2482 11.37 
2483 11.30 
2484 11.25 
2485 11.25 
2486 -12.43 
2487 -11.91 
2488 -11.71 
2489 -11.55 
2490 -11.32 
2491 -11.21 
2492 -11.14 
2493 -11.05 
2494 -10.96 
2495 -10.91 
2496 -10.89 
2497 -10.87 
2498 12.54 
2499 12.16 
2500 12.00 
2501 11.77 
2502 11.64 
2503 11.55 
2504 11.50 
2505 11.39 
2506 11.32 
2507 11.30 
2508 11.30 
2509 11.28 
2510 -12.41 
2511 -11.93 
2512 -11.66 
2513 -11.52 
2514 -11.37 
2515 -11.30 
2516 -11.16 
2517 -11.09 
2518 -11.05 
2519 -11.00 
2520 -10.96 
2521 -10.91 
2522 12.63 
2523 12.16 
2524 11.98 
2525 11.80 
2526 11.68 
2527 11.55 
2528 11.50 
2529 11.41 
2530 11.41 
2531 11.34 
2532 11.30 
2533 11.28 
2534 -12.22 
2535 -11.89 
2536 -11.68 
2537 -11.52 
2538 -11.32 
2539 -11.25 
2540 -11.16 
2541 -11.09 
2542 -11.03 
2543 -10.98 
2544 -10.96 
2545 -1.243 
2546 12.29 
2547 12.13 
2548 11.89 
2549 11.68 
2550 11.57 
2551 11.52 
2552 11.43 
2553 11.34 
2554 11.32 
2555 11.30 
2556 11.23 
2557 -8.609 
2558 -12.11 
2559 -11.77 
2560 -11.52 
2561 -11.39 
2562 -11.30 
2563 -11.16 
2564 -11.05 
2565 -10.98 
2566 -11.00 
2567 -10.91 
2568 -10.87 
2569 13.08 
2570 12.27 
2571 11.98 
2572 11.84 
2573 11.71 
2574 11.59 
2575 11.48 
2576 11.41 
2577 11.37 
2578 11.34 
2579 11.30 
2580 11.25 
2581 -12.41 
2582 -11.95 
2583 -11.73 
2584 -11.52 
2585 -11.41 
2586 -11.25 
2587 -11.23 
2588 -11.12 
2589 -11.05 
2590 -11.00 
2591 -10.96 
2592 -10.94 
2593 12.63 
2594 12.27 
2595 12.02 
2596 11.86 
2597 11.71 
2598 11.64 
2599 11.52 
2600 -11.66 
2601 -11.32 
2602 -11.19 
2603 -11.07 
2604 -11.00 
2605 -10.96 
2606 -10.91 
2607 12.59 
2608 12.11 
2609 11.91 
2610 11.77 
2611 11.66 
2612 11.52 
2613 11.46 
2614 -11.43 
2615 -11.19 
2616 -11.07 
2617 -11.03 
2618 -10.94 
2619 -10.82 
2620 -1.537 
2621 12.25 
2622 12.00 
2623 11.80 
2624 11.68 
2625 11.55 
2626 11.43 
2627 -15.14 
2628 -11.30 
2629 -11.16 
2630 -11.03 
2631 -10.94 
2632 -10.89 
2633 -10.85 
2634 13.02 
2635 12.16 
2636 11.95 
2637 11.77 
2638 11.59 
2639 11.50 
2640 11.43 
2641 -11.34 
2642 -11.21 
2643 -11.12 
2644 -11.00 
2645 -10.91 
2646 -10.85 
2647 -10.87 
2648 12.54 
2649 12.16 
2650 11.93 
2651 11.77 
2652 11.61 
2653 11.57 
2654 11.46 
2655 -11.59 
2656 -11.23 
2657 -11.12 
2658 -10.98 
2659 -10.96 
2660 -10.91 
2661 -10.87 
2662 12.52 
2663 12.11 
2664 11.91 
2665 11.73 
2666 11.64 
2667 11.52 
2668 11.43 
2669 -11.48 
2670 -11.28 
2671 -11.14 
2672 -11.07 
2673 -10.98 
2674 -10.89 
2675 -1.921 
2676 12.25 
2677 12.00 
2678 11.77 
2679 11.66 
2680 11.57 
2681 11.46 
2682 -15.43 
2683 -11.34 
2684 -11.16 
2685 -11.05 
2686 -10.96 
2687 -10.94 
2688 -10.87 
2689 12.90 
2690 12.13 
2691 11.91 
2692 11.75 
2693 11.59 
2694 11.46 
2695 11.41 
2696 -11.28 
2697 -11.14 
2698 -11.03 
2699 -10.96 
2700 -10.85 
2701 -10.82 
2702 -10.80 
2703 12.50 
2704 12.11 
2705 11.89 
2706 11.75 
2707 11.59 
2708 11.48 
2709 11.41 
2710 -11.57 
2711 -11.21 
2712 -11.09 
2713 -10.98 
2714 -10.94 
2715 -10.89 
2716 -10.87 
2717 12.50 
2718 12.11 
2719 11.91 
2720 11.71 
2721 11.59 
2722 11.52 
2723 11.46 
2724 -11.48 
2725 -11.28 
2726 -11.14 
2727 -11.05 
2728 -10.98 
2729 -10.96 
2730 -1.989 
2731 12.27 
2732 12.02 
2733 11.84 
2734 11.71 
2735 11.59 
2736 11.50 
2737 -15.70 
2738 -11.30 
2739 -11.14 
2740 -11.05 
2741 -10.96 
2742 -10.96 
2743 -10.85 
2744 13.02 
2745 12.18 
2746 11.98 
2747 11.77 
2748 11.61 
2749 11.50 
2750 11.43 
2751 -11.61 
2752 -11.28 
2753 -11.16 
2754 -11.07 
2755 -10.96 
2756 -10.87 
2757 -10.82 
2758 12.50 
2759 12.02 
2760 11.84 
2761 11.71 
2762 11.57 
2763 11.43 
2764 11.37 
2765 -11.59 
2766 -11.23 
2767 -11.09 
2768 -11.00 
2769 -10.96 
2770 -10.85 
2771 -10.85 
2772 12.41 
2773 12.04 
2774 11.84 
2775 11.66 
2776 11.57 
2777 11.48 
2778 11.41 
2779 -11.32 
2780 -11.16 
2781 -11.03 
2782 -10.96 
2783 -10.87 
2784 -10.89 
2785 -2.237 
2786 12.29 
2787 12.02 
2788 11.86 
2789 11.71 
2790 11.61 
2791 11.50 
2792 -16.68 
2793 -11.39 
2794 -11.23 
2795 -11.14 
2796 -11.03 
2797 -11.03 
2798 -10.91 
2799 13.02 
2800 12.22 
2801 11.98 
2802 11.80 
2803 11.64 
2804 11.57 
2805 11.46 
2806 -11.71 
2807 -11.37 
2808 -11.23 
2809 -11.12 
2810 -11.03 
2811 -10.91 
2812 -10.91 
2813 12.56 
2814 12.04 
2815 11.84 
2816 11.73 
2817 11.57 
2818 11.43 
2819 11.37 
2820 -11.52 
2821 -11.21 
2822 -11.05 
2823 -10.98 
2824 -10.91 
2825 -10.82 
2826 -10.78 
2827 12.36 
2828 12.04 
2829 11.82 
2830 11.66 
2831 11.52 
2832 11.46 
2833 11.37 
2834 -11.34 
2835 -11.16 
2836 -11.05 
2837 -10.94 
2838 -10.85 
2839 -10.87 
2840 -2.011 
2841 12.25 
2842 12.00 
2843 11.84 
2844 11.68 
2845 11.57 
2846 11.48 
2847 -16.70 
2848 -11.39 
2849 -11.23 
2850 -11.12 
2851 -11.00 
2852 -10.98 
2853 -10.89 
2854 12.99 
2855 12.20 
2856 12.02 
2857 11.75 
2858 11.68 
2859 11.57 
2860 11.50 
2861 -11.75 
2862 -11.30 
2863 -11.19 
2864 -11.07 
2865 -11.00 
2866 -10.91 
2867 -10.89 
2868 12.65 
2869 12.16 
2870 11.89 
2871 11.77 
2872 11.64 
2873 11.50 
2874 11.41 
2875 -11.48 
2876 -11.16 
2877 -11.00 
2878 -10.98 
2879 -10.91 
2880 -10.85 
2881 -10.78 
2882 12.43 
2883 12.07 
2884 11.84 
2885 11.68 
2886 11.59 
2887 11.46 
2888 11.37 
2889 -11.41 
2890 -11.16 
2891 -11.05 
2892 -10.96 
2893 -10.87 
2894 -10.85 
2895 -2.508 
2896 12.22 
2897 11.95 
2898 11.82 
2899 11.61 
2900 11.52 
2901 11.43 
2902 -16.79 
2903 -11.28 
2904 -11.16 
2905 -11.09 
2906 -10.98 
2907 -10.91 
2908 -10.85 
2909 12.95 
2910 12.18 
2911 11.98 
2912 11.77 
2913 11.64 
2914 11.55 
2915 11.48 
2916 -11.61 
2917 -11.28 
2918 -11.14 
2919 -11.00 
2920 -10.96 
2921 -10.94 
2922 -10.91 
2923 12.72 
2924 12.18 
2925 11.93 
2926 11.80 
2927 11.64 
2928 11.57 
2929 11.43 
2930 -11.59 
2931 -11.25 
2932 -11.09 
2933 -11.00 
2934 -10.98 
2935 -10.91 
2936 -10.82 
2937 12.41 
2938 12.04 
2939 11.86 
2940 11.68 
2941 11.59 
2942 11.48 
2943 11.37 
2944 11.32 
2945 11.28 
2946 11.23 
2947 11.16 
2948 11.16 
2949 -12.20 
2950 -11.77 
2951 -11.55 
2952 -11.39 
2953 -11.28 
2954 -11.12 
2955 -11.09 
2956 -11.00 
2957 -10.94 
2958 -10.85 
2959 -10.82 
2960 -4.090 
2961 12.36 
2962 12.04 
2963 11.84 
2964 11.68 
2965 11.57 
2966 11.50 
2967 -16.88 
2968 -11.39 
2969 -11.25 
2970 -11.12 
2971 -11.00 
2972 -11.00 
2973 -10.91 
2974 12.97 
2975 12.22 
2976 11.98 
2977 11.80 
2978 11.64 
2979 11.57 
2980 11.48 
2981 -11.66 
2982 -11.25 
2983 -11.14 
2984 -11.05 
2985 -11.03 
2986 -10.91 
2987 -10.91 
2988 12.77 
2989 12.22 
2990 11.95 
2991 11.80 
2992 11.68 
2993 11.55 
2994 11.46 
2995 -11.48 
2996 -11.30 
2997 -11.14 
2998 -11.09 
2999 -10.98 
3000 -10.94 
3001 -10.87 
3002 12.38 
3003 12.04 
3004 11.89 
3005 11.73 
3006 11.55 
3007 11.46 
3008 11.41 
3009 -11.55 
3010 -11.19 
3011 -11.14 
3012 -11.03 
3013 -10.89 
3014 -10.82 
3015 -2.802 
3016 12.25 
3017 11.95 
3018 11.77 
3019 11.64 
3020 11.52 
3021 11.43 
3022 -16.74 
3023 -11.16 
3024 -11.07 
3025 -10.96 
3026 -10.87 
3027 -10.87 
3028 -10.80 
3029 12.97 
3030 12.20 
3031 11.98 
3032 11.77 
3033 11.61 
3034 11.55 
3035 11.48 
3036 -11.57 
3037 -11.21 
3038 -11.09 
3039 -10.98 
3040 -10.96 
3041 -10.89 
3042 -10.89 
3043 12.72 
3044 12.18 
3045 11.91 
3046 11.77 
3047 11.66 
3048 11.57 
3049 11.43 
3050 -11.57 
3051 -11.39 
3052 -11.21 
3053 -11.14 
3054 -11.05 
3055 -11.00 
3056 -10.91 
3057 12.41 
3058 12.02 
3059 11.86 
3060 11.71 
3061 11.57 
3062 11.46 
3063 11.41 
3064 -11.52 
3065 -11.23 
3066 -11.14 
3067 -11.05 
3068 -10.98 
3069 -10.85 
3070 -7.208 
3071 12.32 
3072 11.98 
3073 11.77 
3074 11.68 
3075 11.52 
3076 11.39 
3077 11.37 
3078 11.32 
3079 11.25 
3080 11.21 
3081 11.19 
3082 -18.17 
3083 -11.91 
3084 -11.71 
3085 -11.50 
3086 -11.37 
3087 -11.21 
3088 -11.12 
3089 -11.05 
3090 -10.96 
3091 -10.89 
3092 -10.87 
3093 -10.87 
3094 13.33 
3095 12.25 
3096 11.98 
3097 11.82 
3098 11.66 
3099 11.57 
3100 11.46 
3101 11.43 
3102 11.37 
3103 11.34 
3104 11.28 
3105 11.25 
3106 -12.99 
3107 -11.95 
3108 -11.73 
3109 -11.57 
3110 -11.43 
3111 -11.25 
3112 -11.19 
3113 -11.14 
3114 -11.09 
3115 -10.98 
3116 -10.96 
3117 -10.94 
3118 12.79 
3119 12.25 
3120 12.00 
3121 11.84 
3122 11.68 
3123 11.59 
3124 11.50 
3125 11.46 
3126 11.37 
3127 11.34 
3128 11.30 
3129 11.30 
3130 -12.27 
3131 -11.93 
3132 -11.66 
3133 -11.52 
3134 -11.37 
3135 -11.23 
3136 -11.14 
3137 -11.07 
3138 -11.00 
3139 -10.94 
3140 -10.91 
3141 -10.87 
3142 12.50 
3143 12.11 
3144 11.91 
3145 11.75 
3146 11.59 
3147 11.50 
3148 11.43 
3149 11.37 
3150 11.32 
3151 11.28 
3152 11.25 
3153 11.21 
3154 -12.22 
3155 -11.77 
3156 -11.59 
3157 -11.39 
3158 -11.25 
3159 -11.16 
3160 -11.12 
3161 -11.03 
3162 -10.94 
3163 -10.91 
3164 -10.89 
3165 -5.039 
3166 12.41 
3167 12.13 
3168 11.89 
3169 11.75 
3170 11.61 
3171 11.55 
3172 11.50 
3173 11.41 
3174 11.34 
3175 11.34 
3176 11.32 
3177 -17.38 
3178 -12.02 
3179 -11.77 
3180 -11.59 
3181 -11.41 
3182 -11.34 
3183 -11.23 
3184 -11.14 
3185 -11.05 
3186 -11.05 
3187 -10.98 
3188 -10.96 
3189 13.31 
3190 12.29 
3191 12.09 
3192 11.91 
3193 11.75 
3194 11.61 
3195 11.52 
3196 11.46 
3197 11.41 
3198 11.34 
3199 11.32 
3200 11.28 
3201 -13.02 
3202 -11.98 
3203 -11.77 
3204 -11.55 
3205 -11.34 
3206 -11.23 
3207 -11.16 
3208 -11.09 
3209 -10.98 
3210 -10.94 
3211 -10.91 
3212 -10.87 
3213 12.63 
3214 12.22 
3215 11.98 
3216 11.73 
3217 11.61 
3218 11.55 
3219 11.48 
3220 11.37 
3221 11.30 
3222 11.30 
3223 11.28 
3224 11.23 
3225 -12.27 
3226 -11.91 
3227 -11.64 
3228 -11.46 
3229 -11.34 
3230 -11.25 
3231 -11.14 
3232 -11.05 
3233 -11.05 
3234 -10.98 
3235 -10.94 
3236 -10.87 
3237 12.56 
3238 12.13 
3239 11.98 
3240 11.80 
3241 11.66 
3242 11.55 
3243 11.48 
3244 11.43 
3245 11.39 
3246 11.32 
3247 11.30 
3248 11.28 
3249 -12.36 
3250 -11.95 
3251 -11.68 
3252 -11.55 
3253 -11.37 
3254 -11.30 
3255 -11.19 
3256 -11.14 
3257 -11.05 
3258 -11.03 
3259 -10.96 
3260 -7.705 
3261 12.47 
3262 12.13 
3263 11.89 
3264 11.71 
3265 11.61 
3266 11.55 
3267 11.43 
3268 11.34 
3269 11.34 
3270 11.30 
3271 11.25 
3272 -18.08 
3273 -12.04 
3274 -11.82 
3275 -11.55 
3276 -11.43 
3277 -11.32 
3278 -11.19 
3279 -11.07 
3280 -11.03 
3281 -11.03 
3282 -10.91 
3283 -10.85 
3284 13.72 
3285 12.27 
3286 12.00 
3287 11.82 
3288 11.68 
3289 11.52 
3290 11.46 
3291 11.39 
3292 11.37 
3293 11.28 
3294 11.25 
3295 11.23 
3296 -13.08 
3297 -12.02 
3298 -11.73 
3299 -11.55 
3300 -11.41 
3301 -11.28 
3302 -11.21 
3303 -11.12 
3304 -11.05 
3305 -11.03 
3306 -10.96 
3307 -10.96 
3308 12.72 
3309 12.27 
3310 11.98 
3311 11.84 
3312 11.68 
3313 11.61 
3314 11.48 
3315 -11.61 
3316 -11.41 
3317 -11.28 
3318 -11.16 
3319 -11.09 
3320 -11.05 
3321 -10.98 
3322 12.52 
3323 12.07 
3324 11.93 
3325 11.75 
3326 11.66 
3327 11.50 
3328 11.46 
3329 -11.55 
3330 -11.23 
3331 -11.14 
3332 -11.07 
3333 -10.98 
3334 -10.87 
3335 -6.598 
3336 12.36 
3337 12.02 
3338 11.82 
3339 11.71 
3340 11.55 
3341 11.46 
3342 -14.94 
3343 -11.25 
3344 -11.16 
3345 -11.00 
3346 -10.94 
3347 -10.89 
3348 -10.85 
3349 13.26 
3350 12.16 
3351 11.98 
3352 11.77 
3353 11.59 
3354 11.50 
3355 11.46 
3356 -11.68 
3357 -11.28 
3358 -11.16 
3359 -11.05 
3360 -10.94 
3361 -10.89 
3362 -10.87 
3363 12.61 
3364 12.16 
3365 11.89 
3366 11.75 
3367 11.59 
3368 11.52 
3369 11.43 
3370 -11.46 
3371 -11.25 
3372 -11.12 
3373 -11.00 
3374 -10.98 
3375 -10.96 
3376 -10.87 
3377 12.54 
3378 12.11 
3379 11.91 
3380 11.75 
3381 11.64 
3382 11.52 
3383 11.48 
3384 -11.52 
3385 -11.23 
3386 -11.09 
3387 -11.05 
3388 -10.96 
3389 -10.89 
3390 -7.751 
3391 12.38 
3392 12.04 
3393 11.82 
3394 11.71 
3395 11.59 
3396 11.48 
3397 -15.14 
3398 -11.30 
3399 -11.16 
3400 -11.05 
3401 -10.98 
3402 -10.91 
3403 -10.87 
3404 13.47 
3405 12.13 
3406 11.95 
3407 11.77 
3408 11.59 
3409 11.48 
3410 11.41 
3411 -11.75 
3412 -11.23 
3413 -11.14 
3414 -11.03 
3415 -10.89 
3416 -10.85 
3417 -10.87 
3418 12.54 
3419 12.09 
3420 11.86 
3421 11.73 
3422 11.57 
3423 11.48 
3424 11.39 
3425 -11.34 
3426 -11.16 
3427 -11.05 
3428 -10.96 
3429 -10.91 
3430 -10.87 
3431 -10.82 
3432 12.50 
3433 12.09 
3434 11.89 
3435 11.73 
3436 11.61 
3437 11.52 
3438 11.46 
3439 -11.55 
3440 -11.28 
3441 -11.14 
3442 -11.05 
3443 -11.00 
3444 -10.96 
3445 -7.931 
3446 12.41 
3447 12.04 
3448 11.84 
3449 11.71 
3450 11.59 
3451 11.50 
3452 -10.10 
3453 -11.46 
3454 -11.25 
3455 -11.14 
3456 -11.05 
3457 -11.03 
3458 -10.89 
3459 13.54 
3460 12.16 
3461 11.95 
3462 11.77 
3463 11.59 
3464 11.50 
3465 11.41 
3466 -11.57 
3467 -11.19 
3468 -11.09 
3469 -10.98 
3470 -10.89 
3471 -10.82 
3472 -10.80 
3473 12.54 
3474 12.09 
3475 11.89 
3476 11.75 
3477 11.59 
3478 11.46 
3479 11.39 
3480 -11.41 
3481 -11.16 
3482 -11.00 
3483 -10.94 
3484 -10.89 
3485 -10.82 
3486 -10.78 
3487 12.43 
3488 12.09 
3489 11.86 
3490 11.64 
3491 11.57 
3492 11.50 
3493 11.43 
3494 -11.59 
3495 -11.32 
3496 -11.16 
3497 -11.07 
3498 -10.98 
3499 -10.96 
3500 -7.547 
3501 12.34 
3502 12.02 
3503 11.82 
3504 11.68 
3505 11.57 
3506 11.50 
3507 -12.59 
3508 -11.41 
3509 -11.21 
3510 -11.12 
3511 -11.03 
3512 -11.00 
3513 -10.94 
3514 13.69 
3515 12.20 
3516 12.00 
3517 11.80 
3518 11.64 
3519 11.57 
3520 11.41 
3521 -11.61 
3522 -11.23 
3523 -11.12 
3524 -11.00 
3525 -10.96 
3526 -10.87 
3527 -10.85 
3528 12.52 
3529 12.09 
3530 11.89 
3531 11.77 
3532 11.61 
3533 11.46 
3534 11.39 
3535 -11.48 
3536 -11.23 
3537 -11.09 
3538 -11.00 
3539 -10.94 
3540 -10.85 
3541 -10.80 
3542 12.43 
3543 12.02 
3544 11.82 
3545 11.64 
3546 11.55 
3547 11.46 
3548 11.37 
3549 -11.41 
3550 -11.21 
3551 -11.05 
3552 -10.96 
3553 -10.89 
3554 -10.89 
3555 -8.790 
3556 12.34 
3557 12.00 
3558 11.84 
3559 11.66 
3560 11.55 
3561 11.46 
3562 -1.424 
3563 -11.43 
3564 -11.12 
3565 -11.05 
3566 -10.96 
3567 -10.96 
3568 -10.87 
3569 13.65 
3570 12.25 
3571 12.00 
3572 11.80 
3573 11.68 
3574 11.59 
3575 11.52 
3576 -11.66 
3577 -11.32 
3578 -11.21 
3579 -11.07 
3580 -11.03 
3581 -10.94 
3582 -10.91 
3583 12.56 
3584 12.16 
3585 11.89 
3586 11.80 
3587 11.66 
3588 11.50 
3589 11.41 
3590 -11.61 
3591 -11.30 
3592 -11.14 
3593 -11.07 
3594 -10.98 
3595 -10.94 
3596 -10.82 
3597 12.43 
3598 12.04 
3599 11.82 
3600 11.66 
3601 11.55 
3602 11.43 
3603 11.34 
3604 -11.39 
3605 -11.14 
3606 -11.05 
3607 -10.91 
3608 -10.87 
3609 -10.85 
3610 -10.82 
3611 12.29 
3612 12.00 
3613 11.82 
3614 11.61 
3615 11.52 
3616 11.46 
3617 -10.82 
3618 -11.23 
3619 -11.07 
3620 -11.00 
3621 -10.89 
3622 -10.85 
3623 -10.80 
3624 13.74 
3625 12.20 
3626 12.00 
3627 11.77 
3628 11.68 
3629 11.55 
3630 11.48 
3631 -11.57 
3632 -11.41 
3633 -11.25 
3634 -11.09 
3635 -11.05 
3636 -10.96 
3637 -10.96 
3638 12.52 
3639 12.16 
3640 11.89 
3641 11.75 
3642 11.64 
3643 11.55 
3644 11.43 
3645 -11.61 
3646 -11.28 
3647 -11.14 
3648 -11.07 
3649 -11.00 
3650 -10.91 
3651 -10.85 
3652 12.56 
3653 12.09 
3654 11.89 
3655 11.71 
3656 11.61 
3657 11.48 
3658 11.39 
3659 11.34 
3660 11.34 
3661 11.25 
3662 11.19 
3663 11.19 
3664 -12.20 
3665 -11.84 
3666 -11.57 
3667 -11.41 
3668 -11.28 
3669 -11.12 
3670 -11.05 
3671 -11.00 
3672 -10.94 
3673 -10.87 
3674 -10.85 
3675 -10.10 
3676 12.38 
3677 12.02 
3678 11.82 
3679 11.68 
3680 11.55 
3681 11.46 
3682 4.519 
3683 -11.41 
3684 -11.19 
3685 -11.07 
3686 -11.00 
3687 -10.96 
3688 -10.91 
3689 13.76 
3690 12.22 
3691 11.98 
3692 11.80 
3693 11.64 
3694 11.57 
3695 11.46 
3696 -11.57 
3697 -11.37 
3698 -11.25 
3699 -11.12 
3700 -11.07 
3701 -11.00 
3702 -10.94 
3703 12.56 
3704 12.16 
3705 11.91 
3706 11.77 
3707 11.68 
3708 11.52 
3709 11.46 
3710 -11.55 
3711 -11.25 
3712 -11.09 
3713 -11.09 
3714 -10.98 
3715 -10.94 
3716 -10.87 
3717 12.56 
3718 12.11 
3719 11.93 
3720 11.75 
3721 11.57 
3722 11.50 
3723 11.43 
3724 -11.41 
3725 -11.16 
3726 -11.09 
3727 -10.98 
3728 -10.87 
3729 -10.82 
3730 -10.06 
3731 12.34 
3732 12.00 
3733 11.82 
3734 11.66 
3735 11.55 
3736 11.43 
3737 4.316 
3738 -11.46 
3739 -11.21 
3740 -11.07 
3741 -10.98 
3742 -10.94 
3743 -10.85 
3744 13.85 
3745 12.16 
3746 11.93 
3747 11.71 
3748 11.59 
3749 11.52 
3750 11.43 
3751 -11.48 
3752 -11.28 
3753 -11.16 
3754 -11.00 
3755 -10.96 
3756 -10.89 
3757 -10.89 
3758 12.52 
3759 12.13 
3760 11.91 
3761 11.75 
3762 11.64 
3763 11.52 
3764 11.43 
3765 -11.48 
3766 -11.21 
3767 -11.05 
3768 -11.00 
3769 -10.96 
3770 -10.89 
3771 -10.82 
3772 12.61 
3773 12.11 
3774 11.93 
3775 11.77 
3776 11.64 
3777 11.52 
3778 11.43 
3779 -11.50 
3780 -11.21 
3781 -11.16 
3782 -11.03 
3783 -10.98 
3784 -10.89 
3785 -10.96 
3786 12.36 
3787 12.02 
3788 11.84 
3789 11.73 
3790 11.55 
3791 11.43 
3792 11.39 
3793 11.34 
3794 11.25 
3795 11.23 
3796 11.23 
3797 4.813 
3798 -12.04 
3799 -11.75 
3800 -11.57 
3801 -11.39 
3802 -11.23 
3803 -11.12 
3804 -11.09 
3805 -10.98 
3806 -10.91 
3807 -10.89 
3808 -10.87 
3809 14.19 
3810 12.25 
3811 11.98 
3812 11.82 
3813 11.64 
3814 11.55 
3815 11.46 
3816 11.39 
3817 11.32 
3818 11.28 
3819 11.28 
3820 11.21 
3821 -13.02 
3822 -11.93 
3823 -11.73 
3824 -11.52 
3825 -11.37 
3826 -11.23 
3827 -11.16 
3828 -11.09 
3829 -11.03 
3830 -10.98 
3831 -10.94 
3832 -10.91 
3833 12.68 
3834 12.25 
3835 12.02 
3836 11.86 
3837 11.66 
3838 11.59 
3839 11.50 
3840 11.48 
3841 11.34 
3842 11.37 
3843 11.32 
3844 11.32 
3845 -12.50 
3846 -12.00 
3847 -11.75 
3848 -11.55 
3849 -11.41 
3850 -11.30 
3851 -11.23 
3852 -11.09 
3853 -11.05 
3854 -11.00 
3855 -11.00 
3856 -10.89 
3857 12.61 
3858 12.18 
3859 11.98 
3860 11.82 
3861 11.64 
3862 11.55 
3863 11.46 
3864 11.39 
3865 11.32 
3866 11.32 
3867 11.25 
3868 11.23 
3869 -12.18 
3870 -11.84 
3871 -11.64 
3872 -11.41 
3873 -11.28 
3874 -11.19 
3875 -11.09 
3876 -11.00 
3877 -10.94 
3878 -10.91 
3879 -10.85 
3880 -10.87 
3881 12.41 
3882 12.09 
3883 11.86 
3884 11.68 
3885 11.59 
3886 11.52 
3887 11.43 
3888 11.34 
3889 11.32 
3890 11.30 
3891 11.28 
3892 5.740 
3893 -12.11 
3894 -11.73 
3895 -11.52 
3896 -11.37 
3897 -11.32 
3898 -11.21 
3899 -11.09 
3900 -11.05 
3901 -11.03 
3902 -10.98 
3903 -10.91 
3904 14.37 
3905 12.32 
3906 12.11 
3907 11.89 
3908 11.77 
3909 11.61 
3910 11.55 
3911 11.46 
3912 11.43 
3913 11.37 
3914 11.34 
3915 11.30 
3916 -13.54 
3917 -12.04 
3918 -11.82 
3919 -11.61 
3920 -11.41 
3921 -11.34 
3922 -11.21 
3923 -11.14 
3924 -11.05 
3925 -11.03 
3926 -10.96 
3927 -10.91 
3928 12.68 
3929 12.25 
3930 12.02 
3931 11.77 
3932 11.66 
3933 11.59 
3934 11.50 
3935 11.37 
3936 11.34 
3937 11.32 
3938 11.25 
3939 11.21 
3940 -12.43 
3941 -11.93 
3942 -11.64 
3943 -11.43 
3944 -11.37 
3945 -11.23 
3946 -11.12 
3947 -11.03 
3948 -11.03 
3949 -10.94 
3950 -10.87 
3951 -10.85 
3952 12.61 
3953 12.11 
3954 11.91 
3955 11.77 
3956 11.64 
3957 11.55 
3958 11.43 
3959 11.41 
3960 11.37 
3961 11.30 
3962 11.25 
3963 11.28 
3964 -12.22 
3965 -11.89 
3966 -11.64 
3967 -11.50 
3968 -11.34 
3969 -11.25 
3970 -11.16 
3971 -11.09 
3972 -11.03 
3973 -10.96 
3974 -10.98 
3975 -10.96 
3976 12.54 
3977 12.11 
3978 11.95 
3979 11.77 
3980 11.68 
3981 11.55 
3982 11.52 
3983 11.41 
3984 11.39 
3985 11.34 
3986 11.30 
3987 5.581 
3988 -12.18 
3989 -11.84 
3990 -11.59 
3991 -11.52 
3992 -11.34 
3993 -11.25 
3994 -11.12 
3995 -11.09 
3996 -11.00 
3997 -10.94 
3998 -10.89 
3999 14.57 
4000 12.27 
4001 12.00 
4002 11.86 
4003 11.73 
4004 11.59 
4005 11.46 
4006 11.43 
4007 11.37 
4008 11.30 
4009 11.23 
4010 11.25 
4011 -13.90 
4012 -11.91 
4013 -11.66 
4014 -11.50 
4015 -11.34 
4016 -11.21 
4017 -11.12 
4018 -11.07 
4019 -10.96 
4020 -10.89 
4021 -10.91 
4022 -10.89 
4023 12.77 
4024 12.20 
4025 11.95 
4026 11.80 
4027 11.68 
4028 11.57 
4029 11.48 
4030 -11.73 
4031 -11.37 
4032 -11.19 
4033 -11.14 
4034 -11.03 
4035 -10.96 
4036 -10.89 
4037 12.50 
4038 12.11 
4039 11.91 
4040 11.75 
4041 11.64 
4042 11.52 
4043 11.43 
4044 -11.48 
4045 -11.23 
4046 -11.14 
4047 -11.07 
4048 -11.00 
4049 -10.96 
4050 -10.96 
4051 12.43 
4052 12.09 
4053 11.89 
4054 11.75 
4055 11.59 
4056 11.50 
4057 5.378 
4058 -11.34 
4059 -11.19 
4060 -11.05 
4061 -11.00 
4062 -10.91 
4063 -10.89 
4064 14.46 
4065 12.22 
4066 12.00 
4067 11.80 
4068 11.66 
4069 11.55 
4070 11.46 
4071 -11.55 
4072 -11.30 
4073 -11.21 
4074 -11.05 
4075 -10.94 
4076 -10.89 
4077 -10.87 
4078 12.65 
4079 12.09 
4080 11.91 
4081 11.71 
4082 11.52 
4083 11.48 
4084 11.41 
4085 -11.59 
4086 -11.23 
4087 -11.09 
4088 -11.03 
4089 -10.94 
4090 -10.87 
4091 -10.80 
4092 12.43 
4093 12.04 
4094 11.82 
4095 11.68 
4096 11.59 
4097 11.48 
